Sample:	'1
File name:	Default_20230210_161948.FD3
Run date:	'16:13:27, 02/10/2023
Operator:	user
Comment:	'

Instrument
Model:	F-2700 FL Spectrophotometer
Serial number:	2190-003
ROM Version:	4J14000 07

Instrument parameters
Measurement type:	3-D scan
Data mode:	Fluorescence
EX  Start WL:	220.0 nm
EX  End WL:	600.0 nm
EX Sampling interval:	5.0 nm
EM  Start WL:	230.0 nm
EM  End WL:	650.0 nm
EM Sampling interval:	5.0 nm
Scan speed:	12000 nm/min
EX Slit:	5.0 nm
EM Slit:	5.0 nm
PMT Voltage:	700 V
Response:	Auto 
Corrected spectra:	Off
Contour interval:	50.000

Peak integration
Integration method:	Rectangular
Sensitivity:	1
Threshold:	1.000

Peaks
No.	ApexEX/EM(nm)	Height(Data)
1	225.0/290.0	32.85
2	230.0/275.0	14.06
3	230.0/305.0	85.46
4	230.0/565.0	-17.99
5	230.0/630.0	-29.44
6	235.0/635.0	-32.25
7	240.0/520.0	75.45
8	245.0/265.0	221.5
9	245.0/370.0	862.5
10	245.0/530.0	74.44
11	245.0/620.0	-4.495
12	250.0/545.0	80.36
13	250.0/640.0	-4.270
14	255.0/555.0	83.23
15	265.0/340.0	514.2
16	265.0/430.0	282.3
17	265.0/580.0	170.8
18	270.0/245.0	-11.74
19	270.0/295.0	 2451
20	270.0/585.0	195.7
21	275.0/545.0	 1309
22	275.0/600.0	155.0
23	280.0/235.0	-7.248
24	285.0/390.0	257.6
25	285.0/405.0	262.7
26	285.0/420.0	245.3
27	290.0/395.0	272.7
28	290.0/640.0	23.51
29	295.0/260.0	-4.335
30	300.0/255.0	-3.869
31	300.0/335.0	337.8
32	305.0/260.0	-3.198
33	305.0/340.0	374.1
34	310.0/245.0	-2.558
35	310.0/275.0	-1.832
36	310.0/345.0	327.1
37	310.0/580.0	4.487
38	315.0/240.0	-2.913
39	315.0/270.0	-2.318
40	315.0/350.0	268.2
41	320.0/360.0	271.3
42	320.0/595.0	1.128
43	325.0/365.0	276.5
44	330.0/235.0	-1.098
45	330.0/260.0	-0.567
46	330.0/285.0	-1.077
47	330.0/370.0	239.3
48	330.0/610.0	0.199
49	335.0/265.0	-1.488
50	335.0/300.0	-0.986
51	335.0/375.0	239.7
52	340.0/385.0	248.8
53	340.0/435.0	157.8
54	345.0/270.0	-1.442
55	345.0/390.0	212.9
56	345.0/625.0	-0.684
57	350.0/395.0	209.3
58	355.0/405.0	207.7
59	355.0/635.0	-0.235
60	360.0/410.0	185.6
61	365.0/255.0	-1.046
62	365.0/305.0	-0.748
63	365.0/415.0	175.0
64	370.0/425.0	170.1
65	375.0/430.0	151.0
66	380.0/275.0	-0.691
67	380.0/435.0	135.7
68	385.0/445.0	122.5
69	390.0/625.0	0.965
70	395.0/455.0	89.07
71	400.0/465.0	73.97
72	405.0/470.0	58.95
73	405.0/620.0	0.072
74	410.0/475.0	49.80
75	415.0/485.0	41.07
76	420.0/490.0	34.93
77	430.0/260.0	-0.489
78	430.0/505.0	25.70
79	435.0/510.0	19.46
80	440.0/515.0	16.16
81	445.0/525.0	13.87
82	450.0/530.0	11.63
83	460.0/545.0	7.603
84	470.0/560.0	4.326
85	480.0/575.0	1.580
86	485.0/360.0	1.129
87	495.0/355.0	1.177
88	495.0/590.0	0.375
89	500.0/370.0	1.340
90	535.0/295.0	4.610
91	540.0/300.0	4.476
92	575.0/320.0	0.849
93	580.0/325.0	0.712

Data points
	220.0	225.0	230.0	235.0	240.0	245.0	250.0	255.0	260.0	265.0	270.0	275.0	280.0	285.0	290.0	295.0	300.0	305.0	310.0	315.0	320.0	325.0	330.0	335.0	340.0	345.0	350.0	355.0	360.0	365.0	370.0	375.0	380.0	385.0	390.0	395.0	400.0	405.0	410.0	415.0	420.0	425.0	430.0	435.0	440.0	445.0	450.0	455.0	460.0	465.0	470.0	475.0	480.0	485.0	490.0	495.0	500.0	505.0	510.0	515.0	520.0	525.0	530.0	535.0	540.0	545.0	550.0	555.0	560.0	565.0	570.0	575.0	580.0	585.0	590.0	595.0	600.0
230.0	-86.44	-21.45	685.9	718.4	23.46	-26.78	-22.41	-9.579	-21.79	-19.81	-10.93	-14.58	-10.95	-9.649	-9.098	-6.012	-5.869	-5.177	-3.268	-3.951	-4.378	-3.139	-2.860	-3.584	-2.403	-2.407	-1.781	-1.952	-2.441	-2.127	-1.670	-2.005	-1.817	-1.508	-1.224	-1.395	-1.216	-1.484	-1.199	-1.169	-1.207	-1.210	-1.310	-0.906	-1.226	-1.334	-0.874	-0.799	0.168	0.599	-0.153	-1.080	-0.942	-1.247	-1.121	-1.116	-1.265	-1.315	-1.264	-1.398	-1.251	-1.529	-1.618	-1.548	-1.244	-1.488	-1.272	-1.455	-1.434	-1.454	-1.438	-1.534	-1.413	-1.786	-1.635	-1.502	-1.718
235.0	-50.14	-38.59	252.9	 1477	 1288	78.16	-21.04	-10.37	-17.77	-22.80	-12.74	-16.66	-7.248	-9.074	-7.298	-3.651	-3.472	-6.049	-3.603	-3.344	-2.483	-1.727	-1.098	-2.583	-2.361	-2.314	-2.403	-1.826	-2.932	-2.081	-1.981	-1.337	-2.011	-1.558	-2.121	-1.186	-1.257	-1.657	-0.767	-1.576	-1.456	-1.420	-1.253	-0.750	-1.089	-1.254	-1.224	-1.384	-0.564	-0.105	1.608	2.540	0.384	-0.665	-0.888	-0.986	-1.359	-1.565	-1.870	-1.795	-1.321	-1.264	-1.248	-1.433	-1.639	-1.559	-1.624	-1.547	-1.541	-1.784	-1.535	-1.507	-1.637	-2.024	-1.390	-1.168	-1.919
240.0	-79.68	-62.76	10.32	780.2	 2605	 1341	54.84	-18.81	-18.61	-21.18	-14.51	-18.22	-12.04	-11.65	-9.159	-5.183	-5.631	-4.914	-3.586	-2.913	-4.813	-3.787	-1.281	-1.695	-1.656	-3.722	-3.061	-1.943	-3.015	-1.643	-2.222	-1.045	-1.937	-0.957	-1.870	-1.304	-1.186	-1.004	-1.443	-1.470	-1.013	-1.616	-1.569	-0.980	-1.542	-0.883	-1.136	-1.250	-0.442	-0.849	0.695	2.535	4.128	2.384	-0.331	-1.305	-1.051	-1.332	-1.477	-1.173	-1.472	-0.326	-0.990	-1.429	-1.169	-1.337	-1.761	-1.267	-1.666	-1.584	-1.139	-1.511	-1.362	-1.821	-1.785	-1.382	-1.921
245.0	-49.16	-64.39	-46.61	190.4	 1574	 3311	 1040	-5.977	-21.99	-18.61	-11.74	-14.97	-14.78	-12.61	-8.428	-7.428	-6.395	-4.013	-2.558	-4.208	-4.449	-3.238	-2.820	-3.132	-2.339	-2.327	-2.521	-1.735	-1.829	-2.033	-2.629	-2.096	-2.320	-0.966	-1.061	-1.577	-1.491	-1.596	-1.282	-1.171	-0.825	-2.359	-1.126	-0.805	-1.460	-0.684	-1.030	-0.602	-0.866	-0.824	-0.513	0.226	2.141	5.496	4.604	2.078	-0.561	-1.172	-1.349	-1.457	-1.366	-0.563	-1.467	-1.211	-1.189	-1.197	-1.658	-1.348	-0.890	-1.787	-1.100	-1.395	-1.028	-1.562	-1.480	-1.515	-1.474
250.0	-61.42	-48.98	-9.573	76.86	393.9	 1719	 3209	 2040	234.3	-12.28	-17.64	-13.48	-14.11	-13.55	-8.863	-4.069	-3.901	-5.904	-2.840	-3.907	-3.378	-3.446	-3.069	-3.715	-2.054	-2.053	-2.438	-2.027	-1.974	-2.073	-2.236	-2.354	-1.715	-1.169	-1.251	-1.543	-1.421	-1.721	-1.506	-1.409	-1.308	-1.797	-0.775	-1.223	-1.155	-1.103	-0.985	-0.991	-0.927	-0.743	-0.703	-0.784	-0.374	1.105	1.980	3.627	4.983	4.155	1.648	-0.858	-1.259	-0.926	-1.593	-1.362	-1.226	-1.294	-1.494	-1.337	-1.102	-1.378	-1.330	-1.502	-1.629	-1.423	-1.275	-2.066	-1.522
255.0	-100.2	-55.58	-30.89	110.4	133.8	384.6	 1202	 4106	 1777	303.2	-10.43	-14.37	-8.162	-7.553	-6.784	-6.157	-3.869	-6.038	-5.624	-3.298	-3.603	-3.662	-2.960	-2.354	-1.797	-1.763	-2.031	-2.449	-1.801	-1.046	-1.273	-2.205	-1.535	-1.316	-1.595	-1.333	-1.649	-2.096	-1.331	-1.895	-1.633	-1.182	-0.777	-1.469	-1.208	-1.113	-1.130	-1.025	-0.867	-0.598	-0.574	-1.071	-0.696	-0.116	-0.536	0.263	0.818	3.995	9.744	7.608	2.608	-0.673	-1.403	-1.425	-1.565	-0.969	-1.843	-1.588	-1.633	-1.428	-0.931	-1.935	-1.278	-1.668	-1.534	-1.370	-1.574
260.0	-96.66	-75.66	-56.75	58.77	194.1	127.2	270.6	 1871	 4768	 1546	135.7	-11.38	-4.279	-8.665	-4.676	-4.335	-6.434	-3.198	-5.371	-2.776	-4.106	-4.019	-0.567	-2.081	-3.097	-2.505	-2.565	-2.078	-2.078	-2.104	-1.501	-2.281	-2.221	-1.748	-1.850	-1.343	-2.163	-1.109	-1.320	-0.980	-1.350	-1.229	-0.489	-0.695	-1.442	-1.506	-1.043	-1.234	-1.031	-0.895	-0.666	-1.116	-0.472	-0.438	-0.915	-0.819	-0.933	0.161	3.380	7.441	11.36	6.886	1.124	-1.100	-1.475	-1.559	-1.779	-1.070	-1.585	-0.979	-1.018	-1.750	-1.008	-1.531	-1.593	-1.693	-1.727
265.0	-60.12	-85.61	-51.87	-21.05	131.2	221.5	93.17	462.7	 2585	 5498	 1210	48.71	-3.798	-7.554	-6.796	-5.412	-6.476	-4.892	-4.203	-2.850	-3.519	-2.642	-2.413	-1.488	-2.320	-2.651	-2.486	-2.193	-2.721	-1.653	-1.324	-2.447	-0.863	-2.104	-1.573	-1.418	-1.554	-1.482	-1.403	-1.516	-1.255	-1.260	-1.430	-1.089	-1.344	-1.328	-1.171	-1.299	-0.995	-0.865	-0.515	-0.946	-0.785	-0.235	-0.789	-1.146	-1.001	-1.058	-0.117	1.350	6.108	11.26	11.43	4.993	-0.182	-1.505	-1.663	-1.684	-1.341	-1.309	-1.595	-0.919	-1.305	-1.496	-1.754	-1.436	-1.599
270.0	-87.06	-75.72	-52.59	-35.43	17.59	184.3	229.7	151.9	642.5	 2513	 5123	 3487	312.0	-3.186	-2.032	-3.635	-5.513	-5.585	-4.159	-2.318	-3.426	-2.819	-2.879	-1.664	-1.982	-1.442	-2.455	-2.110	-2.431	-2.202	-1.406	-1.693	-1.583	-1.729	-1.713	-1.354	-1.508	-1.488	-1.284	-1.739	-1.121	-1.676	-1.620	-1.247	-1.010	-1.719	-1.355	-1.308	-1.136	-1.091	-0.828	-0.939	-1.086	-0.895	-0.544	-0.664	-0.522	-0.930	-0.687	-0.781	0.466	2.515	5.959	9.873	11.70	9.090	2.873	-0.927	-1.162	-1.184	-1.509	-1.437	-1.764	-1.385	-1.728	-1.737	-1.366
275.0	-47.22	-10.35	14.06	-33.94	-13.26	48.55	248.5	383.1	251.4	696.6	 1834	 6068	 5514	339.5	1.693	-2.993	-2.424	-4.772	-1.832	-3.228	-4.653	-3.832	-2.735	-2.619	-2.182	-2.140	-2.150	-2.516	-2.246	-1.989	-1.338	-1.574	-0.691	-1.212	-1.545	-1.410	-2.095	-1.226	-1.280	-1.633	-1.042	-2.013	-1.376	-0.874	-1.067	-0.924	-1.036	-1.047	-0.949	-0.810	-0.161	-0.829	-1.379	-1.149	-1.165	-1.185	-0.113	0.021	-0.283	-1.072	-0.544	-0.119	0.474	1.740	3.667	10.36	17.57	14.95	3.671	-1.489	-1.530	-1.900	-1.287	-1.604	-1.577	-1.338	-1.333
280.0	-83.77	-13.60	-14.04	-16.14	-19.98	22.73	147.5	488.3	520.5	561.7	883.4	 2733	 7748	 4217	146.2	-1.319	-3.185	-1.535	-4.837	-2.483	-3.176	-3.261	-3.512	-2.650	-2.581	-2.878	-2.038	-3.020	-1.957	-2.916	-1.746	-1.951	-1.543	-1.669	-1.693	-1.839	-1.436	-1.174	-1.474	-1.521	-1.496	-1.584	-1.724	-1.722	-1.063	-1.072	-1.141	-0.909	-0.754	-0.680	-0.422	-0.668	-1.304	-1.071	-1.045	-0.993	-0.750	0.081	-0.025	0.548	-0.309	-0.396	0.381	0.858	0.445	2.762	8.321	17.99	20.10	10.71	0.961	-1.381	-1.543	-1.426	-1.912	-1.611	-2.183
285.0	-79.15	13.71	-7.339	19.55	-4.793	42.24	147.9	440.4	926.8	946.6	 1103	 1480	 3826	 8238	 2771	38.88	0.948	-1.269	-3.471	-4.009	-3.281	-2.991	-1.077	-1.540	-2.376	-2.207	-1.844	-2.700	-2.089	-2.336	-2.089	-1.803	-2.102	-1.388	-1.656	-1.342	-1.190	-1.254	-1.764	-1.688	-1.301	-1.421	-1.209	-1.312	-0.837	-1.118	-1.063	-1.362	-0.353	-0.697	-0.984	-1.106	-1.035	-0.676	-0.961	-0.608	-0.921	-1.251	0.016	0.977	1.101	0.908	0.831	1.038	0.793	0.624	2.616	5.426	12.66	20.13	18.44	6.049	-1.296	-1.602	-1.850	-1.898	-2.121
290.0	-21.07	32.85	25.87	24.49	16.10	95.86	206.1	468.5	987.9	 1621	 1760	 1571	 1675	 3418	 6028	 2481	181.2	1.083	-0.876	-2.435	-0.768	-3.008	-1.342	-2.266	-2.286	-2.406	-1.683	-1.775	-1.508	-1.980	-1.910	-1.550	-1.576	-1.304	-1.624	-1.205	-1.224	-1.335	-1.361	-1.177	-1.337	-1.390	-1.348	-1.838	-0.945	-1.025	-0.648	-1.031	-0.691	-0.717	-0.793	-1.106	-0.694	-1.026	-1.160	-0.734	-0.819	-0.774	0.207	0.451	1.141	1.915	2.264	2.622	2.229	2.200	2.285	2.349	3.345	5.777	10.65	14.37	15.49	11.38	3.243	-1.035	-1.599
295.0	-6.826	0.740	49.81	14.26	44.30	113.5	246.0	518.0	987.0	 1685	 2451	 1992	 1298	 1013	 1797	 5466	 3615	222.1	1.394	-0.257	-0.208	-1.868	-1.735	-2.223	-2.500	-2.092	-1.319	-1.886	-1.340	-1.241	-2.005	-1.469	-1.854	-1.483	-1.715	-1.145	-1.415	-1.208	-1.881	-1.255	-1.447	-0.924	-0.994	-1.498	-0.934	-1.198	-0.711	-1.209	-0.463	-0.343	-0.874	-0.428	-0.880	-0.771	-0.799	-0.499	-0.789	-0.202	0.772	0.773	1.191	1.460	3.077	4.610	3.769	3.379	2.785	1.392	0.701	1.241	1.202	2.177	5.691	13.59	23.67	17.38	3.359
300.0	-47.30	35.57	68.95	41.23	77.81	132.2	264.4	573.6	981.0	 1602	 2369	 2289	 1260	491.2	489.1	 2023	 6619	 2848	124.5	1.404	-0.353	-1.302	-3.595	-0.986	-1.400	-1.492	-2.208	-1.399	-1.781	-0.951	-1.791	-1.192	-1.455	-0.972	-1.375	-1.778	-1.245	-1.667	-1.267	-0.920	-1.470	-1.024	-1.806	-0.960	-1.615	-0.959	-0.917	-1.146	-0.226	-0.133	-0.898	-0.406	-0.905	-0.943	-0.554	-0.707	-0.728	0.022	0.631	0.791	0.999	2.027	2.437	3.559	4.476	4.335	3.168	1.625	0.555	-0.119	-0.341	-0.460	0.233	2.586	10.09	22.65	23.43
305.0	-39.60	49.16	85.46	46.68	68.33	126.9	254.8	516.7	931.1	 1472	 1991	 2264	 1464	398.0	205.1	518.7	 2925	 6978	 2052	44.04	1.954	0.324	-1.791	-2.060	-0.928	-1.221	-0.750	-1.432	-1.226	-0.748	-1.928	-1.648	-1.324	-0.557	-1.817	-0.705	-1.397	-1.120	-1.067	-0.870	-1.526	-1.144	-1.311	-1.405	-1.434	-1.171	-0.994	-1.195	-0.444	-0.581	-0.779	-1.169	-0.928	-0.781	-0.121	-0.320	-0.269	-0.657	0.473	0.329	1.199	1.760	2.491	2.655	2.846	3.652	3.424	2.689	-0.015	-0.666	-0.446	-0.851	-1.131	-0.566	1.642	6.447	15.37
310.0	-46.87	37.60	57.25	61.93	72.61	126.4	230.0	449.7	806.4	 1216	 1602	 1681	 1409	609.5	186.8	179.0	718.2	 2869	 5242	 2812	123.7	3.390	-0.014	-1.057	-1.516	-1.397	-1.828	-1.673	-1.862	-1.216	-1.348	-1.518	-1.451	-1.463	-1.342	-1.365	-1.281	-0.964	-1.172	-1.202	-1.384	-1.219	-1.284	-1.582	-1.290	-1.171	-0.889	-0.981	-0.738	-0.669	-0.660	-0.680	-0.810	-0.858	-0.601	-0.787	-0.447	-0.172	0.220	0.306	0.490	1.428	2.036	1.957	1.825	2.201	2.513	2.305	1.137	-0.105	-0.493	-1.208	-1.372	-1.115	-0.809	0.142	2.408
315.0	26.90	14.27	59.05	63.12	82.96	108.3	209.1	390.7	639.1	974.7	 1242	 1222	953.9	728.6	393.0	138.0	209.2	672.6	 1529	 5101	 2308	170.3	0.708	0.484	-1.200	-1.499	-0.520	-1.190	-1.301	-2.056	-1.101	-1.812	-1.466	-1.329	-1.513	-1.027	-2.392	-0.750	-1.190	-1.795	-1.044	-1.018	-1.275	-1.903	-1.159	-1.176	-0.658	-0.560	-1.019	-0.727	-0.895	-0.926	-0.831	-1.125	-0.123	-0.845	-0.616	0.025	0.343	0.432	0.376	0.678	1.018	1.220	1.285	1.458	1.058	1.197	0.303	-0.064	-0.074	-0.098	-1.231	-1.378	-1.138	-1.509	-0.312
320.0	-69.87	25.05	60.77	80.66	78.46	130.6	206.5	321.7	525.7	802.2	 1005	 1013	709.8	521.4	570.6	232.7	102.9	193.9	372.7	 1918	 5689	 1980	102.2	1.156	0.089	-0.433	-1.067	-1.296	-1.706	-2.070	-1.844	-1.543	-1.406	-1.181	-0.773	-1.135	-1.626	-1.118	-1.370	-1.355	-0.907	-0.739	-1.025	-1.044	-0.662	-1.373	-0.708	-1.028	-0.973	-0.644	-0.480	-0.791	-0.506	-0.679	-0.733	-0.749	-0.542	-0.403	-0.324	0.224	0.343	0.532	0.858	0.826	0.386	0.372	0.491	0.422	0.276	-0.458	-0.535	0.849	-0.401	-0.931	-1.043	-1.112	-1.199
325.0	-63.76	7.622	68.50	116.9	100.7	136.1	216.9	310.8	473.8	656.3	831.7	824.2	605.2	365.6	483.0	438.6	122.7	92.19	115.5	466.8	 2614	 5836	 1557	44.95	2.278	1.081	-0.217	-1.121	-1.503	-1.709	-1.308	-0.617	-1.635	-0.530	-0.557	-1.484	-1.344	-1.331	-0.947	-1.507	-1.228	-1.223	-0.822	-1.276	-0.836	-1.260	-0.717	-0.808	-0.339	-0.609	-0.658	-0.740	-0.995	-0.598	-0.907	-0.603	-0.498	-0.421	-0.257	0.154	-0.127	-0.622	0.467	0.410	-0.070	0.188	0.507	0.005	-0.222	-0.356	-0.652	0.490	0.712	-0.122	-0.379	-1.330	-1.607
330.0	-40.65	-5.547	101.1	173.0	185.4	234.5	275.2	329.3	412.2	565.2	661.9	653.7	500.6	316.4	289.0	398.0	325.4	118.3	69.19	134.4	631.0	 2464	 4518	 2486	99.35	3.537	0.284	-0.047	-0.564	0.021	-1.424	-1.116	-1.408	-0.422	-1.047	-1.125	-1.345	-1.309	-1.052	-1.163	-1.503	-1.195	-0.988	-1.087	-1.092	-0.965	-0.612	-1.003	-0.210	-0.696	-0.615	-0.643	-0.797	-0.808	-0.481	-0.385	-0.708	-0.477	-0.272	-0.256	-0.381	-0.232	-0.084	0.007	-0.242	-0.008	-0.280	-0.036	-0.446	-0.478	-0.768	-0.765	-0.845	-0.188	-0.257	-0.203	-0.725
335.0	-48.46	18.78	106.0	278.3	341.0	379.6	423.1	405.2	431.0	499.1	562.4	546.4	428.3	298.3	240.1	242.3	337.8	303.7	94.16	70.73	172.5	571.7	 1380	 4731	 3954	139.4	2.666	1.319	0.343	0.160	-1.104	-0.022	-1.426	-1.086	-2.153	-1.428	-1.244	-1.491	-1.358	-0.980	-1.340	-1.551	-0.956	-0.821	-1.325	-1.017	-0.195	-0.622	-0.781	-0.387	-0.599	-0.497	-0.566	-0.454	-0.189	0.001	-0.391	-0.388	0.131	0.004	-0.080	-0.293	-0.037	-0.177	-0.120	-0.395	-0.611	-0.530	-0.372	-0.561	-0.757	-0.786	-1.003	-1.135	-0.634	0.267	0.019
340.0	-41.21	10.13	190.4	316.6	437.7	485.1	550.9	486.9	489.0	514.2	506.2	474.1	390.8	280.8	222.0	195.3	214.8	374.1	208.8	69.28	75.09	154.3	333.8	 1823	 5721	 1566	89.61	1.290	0.135	0.367	-0.603	-0.858	-1.151	-0.689	-0.818	-1.845	-0.980	-1.553	-1.192	-0.984	-1.214	-1.288	-1.325	-0.403	-1.391	-1.210	-0.819	-0.368	-0.524	-0.380	0.003	-0.482	-0.158	0.056	0.120	0.487	-0.244	0.074	0.235	-0.684	-0.033	-0.229	-0.435	-0.084	0.540	-0.119	-0.342	-0.726	-0.038	-0.407	-0.696	-1.068	-0.867	-0.896	-1.186	-0.621	-0.609
345.0	-80.86	18.95	233.5	392.4	521.3	593.9	614.0	555.3	500.8	496.9	456.5	420.2	344.0	276.2	227.9	192.3	170.9	265.0	327.1	126.4	63.69	69.29	103.3	446.0	 2658	 5527	 1292	39.13	2.331	0.272	-0.867	-0.911	-0.887	-0.377	-0.822	-0.828	-1.004	-1.401	-0.663	-0.836	-1.208	-1.202	-0.718	-1.070	-1.188	-0.917	-0.918	-0.718	-0.459	-0.205	0.157	0.002	0.341	0.160	0.221	0.307	0.435	-0.089	0.082	-0.032	0.047	-0.068	-0.209	-0.259	0.722	-0.355	-0.579	-0.160	-0.222	-0.397	-0.836	-1.147	-0.982	-1.039	-0.846	-0.718	-1.291
350.0	-55.41	29.73	241.1	471.0	611.4	719.6	734.9	644.7	558.8	502.4	414.8	354.1	314.5	262.2	230.5	195.1	164.3	173.4	256.2	268.2	119.6	64.42	59.99	126.5	642.7	 2463	 4307	 2619	82.21	3.125	0.749	0.033	-1.241	-1.047	-0.868	-1.016	-0.877	-0.342	-0.727	-0.668	-0.891	-0.858	-1.016	-1.359	-0.983	-0.895	-0.665	-0.555	-0.420	-0.067	0.034	0.063	0.568	0.343	0.621	0.442	0.484	0.408	0.236	0.376	0.150	0.146	-0.486	-0.424	-0.270	-0.359	-0.548	-0.420	-0.527	-0.726	-0.996	-0.867	-1.278	-0.882	-1.164	-1.108	-1.134
355.0	-4.679	76.03	242.6	496.5	706.8	824.3	777.5	707.1	592.4	512.6	394.7	318.5	287.3	256.4	223.2	202.5	172.4	157.6	168.0	239.0	262.4	110.0	63.51	65.99	173.5	574.4	 1389	 4608	 3422	111.8	3.698	1.520	-0.772	-0.628	-0.122	-1.241	-0.611	-0.454	-1.078	-0.875	-1.196	-1.002	-0.860	-0.941	-0.843	-0.836	-0.807	-0.646	-0.466	-0.040	0.185	0.467	0.557	0.367	0.418	1.177	1.077	0.816	-0.220	-0.329	-0.055	0.457	-0.813	-0.163	-0.463	-0.364	-0.525	-0.608	-1.112	-0.727	-0.553	-1.081	-1.013	-1.181	-1.269	-0.920	-1.140
360.0	-42.07	61.03	289.5	510.9	728.8	847.7	835.7	720.6	597.8	495.9	384.5	312.0	277.3	250.8	227.9	208.8	178.7	166.1	152.9	171.5	271.3	197.5	83.48	60.32	74.59	154.4	334.5	 1897	 5420	 1341	67.50	1.981	0.591	-0.152	0.002	-0.498	-0.760	-0.794	-1.235	-0.964	-0.268	-1.464	-1.061	-1.081	-0.964	-0.534	-0.719	-0.158	-0.442	-0.118	0.640	0.352	0.672	1.129	0.619	0.941	0.689	0.827	0.302	-0.358	0.261	-0.075	-0.043	-0.031	-0.297	-0.467	-0.845	-0.407	-1.014	-1.014	-0.508	-0.835	-0.460	-1.284	-1.221	-1.250	-1.212
365.0	-55.87	88.31	247.1	518.6	744.6	855.6	843.5	729.8	617.4	497.0	367.8	278.2	267.5	242.8	237.0	213.5	192.7	178.4	168.1	149.5	201.9	276.5	142.4	67.24	61.82	68.37	101.3	465.0	 2726	 5236	 1090	25.14	0.907	0.132	0.527	-0.050	-0.614	-0.212	-1.029	-1.183	-0.298	-1.290	-1.292	-0.518	-0.685	-0.669	-0.679	-0.435	-0.370	0.334	0.188	0.690	0.480	0.806	0.769	1.138	0.602	0.828	0.386	-0.038	-0.267	-0.016	-0.458	-0.183	-0.053	-0.288	-0.440	-0.897	-1.009	-0.910	-0.716	-0.978	-0.641	-1.058	-0.618	-1.097	-1.004
370.0	-53.49	71.76	275.8	510.1	741.9	862.5	856.8	717.0	576.3	470.5	348.6	290.8	253.8	243.6	238.8	216.9	203.5	188.1	178.4	158.9	158.3	213.2	239.3	135.0	74.81	61.72	55.88	130.4	667.5	 2501	 4273	 2043	64.45	2.331	0.998	0.295	-0.321	-0.772	-0.757	-1.027	-0.800	-1.209	-1.506	-1.066	-1.085	-0.859	-0.877	-0.132	-0.241	-0.037	-0.004	0.488	0.690	0.749	0.951	0.804	1.340	0.598	0.443	0.090	-0.131	-0.052	-0.395	-0.227	-0.776	-0.700	-0.744	-0.738	-0.894	-0.929	-0.607	-0.874	-0.532	-0.793	-0.485	-1.013	-0.880
375.0	-85.16	69.65	273.6	462.1	695.8	827.0	794.4	681.1	530.7	430.0	338.8	267.2	269.2	250.0	242.3	220.5	221.5	203.5	190.3	173.3	161.9	159.2	210.8	239.7	126.9	74.59	57.34	64.44	173.3	577.9	 1508	 4626	 2912	84.93	1.975	1.010	0.477	-0.749	-0.047	-1.119	-1.067	-0.265	-1.699	-0.465	-0.997	-1.173	-0.949	-0.635	0.291	0.053	-0.242	0.308	0.393	0.544	1.084	0.692	1.119	0.840	0.515	0.048	-0.532	0.055	-0.569	-0.085	-0.843	-0.253	-0.624	-0.812	-0.406	-0.656	-0.736	-1.149	-0.461	-0.932	-0.332	-0.813	-0.780
380.0	-58.81	49.83	244.9	458.5	651.0	760.2	776.0	641.9	496.9	412.8	336.1	266.5	263.2	250.7	252.6	230.8	224.7	217.9	197.7	179.5	171.8	164.3	167.0	235.2	204.8	95.77	67.95	57.65	69.73	151.6	362.3	 2099	 5129	 1054	44.24	0.994	1.327	-0.422	0.198	-0.956	-0.580	-0.988	-1.213	-0.660	-0.962	-0.561	-0.809	-0.910	-0.209	-0.016	0.023	0.379	0.594	0.595	0.543	0.601	0.953	0.629	0.153	-0.345	-0.480	-0.149	-0.162	-0.169	-0.364	-0.429	-0.679	-0.761	-0.830	-0.287	-0.522	-1.244	-0.287	-0.311	-0.947	-1.040	-0.541
385.0	-35.10	37.64	229.1	427.2	653.3	750.7	704.5	606.7	505.4	414.0	323.4	266.7	254.7	251.7	254.4	238.4	230.0	219.4	209.3	195.6	177.7	161.2	155.5	186.3	248.8	154.8	85.31	64.35	54.81	62.01	101.5	522.5	 2876	 4534	790.2	11.33	1.689	0.482	-0.075	-0.640	-0.123	-0.659	-0.992	-0.761	-0.473	-0.393	-0.460	-0.758	-0.296	-0.468	0.344	0.569	0.631	1.018	0.371	0.805	0.473	0.378	0.279	0.375	-0.112	-0.515	-0.565	-0.211	-0.296	-0.741	-0.928	-0.791	-0.700	-0.675	-0.507	-0.896	-0.183	-0.653	-0.963	-0.514	-0.804
390.0	-14.95	47.05	208.4	404.4	576.3	654.2	628.7	561.8	454.5	387.7	315.0	267.0	242.3	257.6	254.9	252.0	237.7	235.0	218.7	201.8	185.2	170.6	159.5	158.2	193.2	212.9	139.6	80.94	59.69	50.75	50.45	138.6	715.1	 2356	 3573	 1498	46.07	2.549	0.237	-0.035	-0.292	-0.478	-0.187	-0.638	-0.692	-0.355	-0.432	-0.681	-0.621	-0.269	0.214	0.112	0.135	0.560	0.608	0.169	0.295	0.230	0.231	-0.040	-0.164	-0.407	-0.363	-0.287	-0.382	-0.999	-0.984	-0.875	-0.697	-0.575	-0.622	-0.580	-0.552	-0.808	-0.765	-0.786	-0.418
395.0	-4.969	45.47	182.3	359.7	493.3	564.0	546.4	479.1	404.2	349.2	303.7	246.8	240.1	256.7	272.7	247.3	243.7	233.5	222.1	210.1	194.5	180.6	165.9	158.9	158.6	183.7	209.3	125.2	74.32	58.54	47.15	57.39	178.0	540.6	 1421	 3912	 2102	59.34	1.388	0.580	0.246	0.285	-0.054	-0.735	-0.458	-0.900	-0.551	-0.411	-0.497	-0.612	-0.052	0.192	0.279	0.474	0.430	-0.016	0.077	-0.064	0.397	0.128	-0.224	-0.094	-0.299	-0.614	-0.532	-0.465	-1.020	-0.835	-0.794	-1.084	-0.337	-0.779	-0.908	-0.575	-0.869	-0.571	-0.813
400.0	-56.24	-0.003	158.2	314.4	428.9	493.4	529.0	417.7	393.1	322.4	293.0	244.6	251.1	251.3	246.7	245.7	239.1	237.8	225.0	207.1	197.8	184.4	169.8	165.7	150.8	155.0	201.2	181.9	98.66	68.55	54.08	45.36	62.26	136.5	342.3	 1957	 4066	838.6	29.89	0.782	0.858	0.469	-0.456	-0.640	-0.764	-0.958	-0.588	-0.361	-0.408	-0.531	-0.182	-0.026	0.166	-0.634	-0.088	-0.057	0.066	-0.308	-0.055	-0.244	-0.630	-0.155	-0.223	-0.613	-0.589	-0.429	-0.462	-0.463	-0.588	-0.938	-0.889	-0.312	-0.866	-0.770	-0.634	-0.752	-1.394
405.0	-24.58	9.433	176.3	275.1	375.4	489.4	478.2	415.7	352.5	329.1	278.1	235.9	259.2	262.7	257.5	244.4	236.5	234.0	222.5	210.2	195.1	181.6	174.3	168.6	152.7	150.8	160.6	207.7	143.2	81.19	60.30	50.67	42.48	49.66	89.95	494.6	 2427	 3758	621.3	7.269	0.475	1.085	-0.005	-0.655	-0.965	-0.759	-0.668	-0.458	-0.665	-0.362	-0.100	0.244	0.121	-0.456	-0.072	-0.155	0.292	-0.278	-0.490	0.059	-0.679	-0.085	-0.384	-0.234	-0.777	-0.965	-0.630	-0.532	-0.436	-0.772	-0.873	-1.075	-0.461	-0.757	-0.217	-0.475	-1.203
410.0	-58.84	24.32	137.3	254.3	372.7	406.9	422.6	365.4	335.8	298.0	257.5	240.3	246.9	242.4	252.4	241.8	229.8	231.3	216.1	204.0	190.0	183.7	171.5	169.9	157.1	150.0	143.3	170.5	185.6	128.7	77.26	59.47	43.64	35.80	38.28	123.3	613.3	 2088	 2856	 1153	36.85	0.865	0.011	-0.238	-0.960	-0.354	-0.348	-0.563	-0.259	-0.380	-0.269	-0.393	-0.121	-0.157	-0.013	-0.222	0.014	-0.348	-0.351	-0.433	-0.450	-0.196	-0.248	-0.482	-1.029	-0.878	-1.019	-0.254	-0.593	-0.716	-0.924	-0.777	-0.813	-0.324	-0.733	-0.627	-0.608
415.0	-64.17	0.799	115.5	226.6	333.5	352.4	401.1	340.3	303.4	290.2	263.6	242.3	245.7	235.2	253.6	234.0	225.7	213.7	207.5	195.0	183.1	180.8	170.7	165.5	162.1	149.7	144.0	148.1	162.8	175.0	115.2	69.27	51.77	39.38	31.68	43.47	148.5	475.7	 1170	 3048	802.6	51.08	1.225	-0.310	-0.808	-0.398	-0.428	-0.785	-0.721	-0.010	-0.144	-0.609	-0.536	0.312	-0.167	-0.301	0.019	-0.656	-0.605	-0.578	-0.490	-0.365	-0.596	-0.397	-0.766	-0.904	-0.604	-0.687	-0.429	-0.918	-0.814	-1.215	-0.928	-0.714	-0.851	-0.927	-0.653
420.0	-90.56	36.08	75.36	245.4	294.9	305.9	350.3	305.9	291.8	283.3	248.8	250.9	236.5	245.3	236.2	234.1	215.0	208.3	202.5	184.7	179.0	179.5	169.7	163.0	158.8	153.9	142.0	140.1	138.4	172.1	157.1	85.56	58.85	44.35	34.29	30.13	46.54	116.2	281.1	 1583	 2983	690.7	18.07	0.398	0.185	0.223	-0.368	-0.456	-0.602	-0.417	0.333	0.202	-0.428	0.182	-0.252	-0.142	-0.081	-0.357	-0.311	-0.934	-0.658	-0.331	-0.316	-0.293	-1.118	-0.809	-0.983	-0.725	-0.666	-1.561	-0.447	-0.821	-0.636	-0.610	-0.566	-1.200	-0.758
425.0	-45.60	-20.40	99.62	210.0	272.7	298.7	292.8	297.9	287.0	278.7	252.4	248.8	225.7	229.4	224.6	225.8	207.5	205.1	189.4	174.0	168.6	169.2	166.2	162.4	159.5	155.3	147.4	137.3	135.6	143.7	170.1	118.3	68.88	48.40	38.24	29.15	26.65	37.71	69.91	403.8	 1943	 2762	482.3	4.032	0.402	0.028	0.006	-0.350	-0.580	-0.184	-0.079	-0.055	-0.013	-0.510	-0.677	0.010	-0.407	-0.593	-0.565	-0.852	-0.473	-0.582	-0.153	-0.367	-0.761	-0.733	-0.744	-0.671	-0.497	-1.377	-0.693	-0.966	-0.529	-0.733	-0.773	-0.818	-0.775
430.0	-73.21	-7.347	85.37	177.4	220.6	264.5	296.0	278.3	280.2	282.3	257.2	237.7	228.3	223.8	219.6	212.1	194.2	189.6	181.5	170.1	162.7	164.2	159.4	160.1	155.2	153.9	149.2	142.6	137.7	129.5	143.0	151.0	103.6	61.06	45.84	33.82	25.66	22.46	25.50	97.27	494.8	 1594	 2264	898.2	31.42	0.302	0.285	-0.172	-0.246	-0.235	-0.435	-0.388	-0.207	-0.165	-0.392	-0.046	-0.535	-0.614	-0.219	-0.102	-0.623	-0.522	-0.629	-0.723	-0.669	-0.605	-0.721	-0.595	-0.561	-0.749	-0.908	-0.991	-0.525	-0.555	-0.837	-0.769	-0.767
435.0	-73.83	17.24	84.73	151.0	234.1	224.9	276.2	273.9	245.7	274.6	259.2	233.3	234.5	226.1	211.1	201.4	190.0	173.7	174.0	163.9	162.2	156.1	150.6	155.7	157.8	153.1	151.1	144.9	140.0	128.4	126.7	134.7	135.7	88.43	54.01	39.70	31.09	21.53	17.42	31.19	116.9	362.7	 1003	 2571	718.8	38.03	1.234	0.113	-0.102	-0.095	0.066	0.259	0.206	-0.457	-0.392	-0.095	-0.371	-0.778	-0.315	-0.305	-0.794	0.015	-0.826	-0.626	-0.864	-0.590	-0.606	-0.509	-0.895	-0.352	-0.755	-1.114	-0.408	-0.461	-0.790	-0.764	-0.694
440.0	-28.35	-11.62	40.71	159.9	199.6	246.4	272.9	268.7	228.5	269.2	243.8	237.2	235.1	222.9	211.1	191.7	184.2	177.1	168.5	156.6	151.8	155.1	145.9	156.2	151.0	150.9	148.9	142.0	142.0	130.5	126.7	119.4	129.9	115.6	65.09	43.37	33.80	25.00	17.35	18.01	33.54	87.43	243.5	 1397	 2628	590.2	13.53	0.533	0.260	0.259	0.448	0.166	-0.323	-0.467	-0.081	-0.124	0.159	-0.176	-0.228	-0.385	-0.874	-0.342	-0.755	-0.537	-0.690	-0.599	-0.509	-0.420	-0.650	-1.018	-1.023	-0.797	-0.688	-0.758	-0.460	-0.358	-0.464
445.0	-28.20	21.24	60.73	129.6	180.9	226.2	257.5	265.9	249.7	253.8	235.7	243.5	224.4	219.8	198.9	184.8	176.4	166.3	154.5	152.2	153.2	144.1	139.7	148.0	142.8	148.5	147.9	142.5	141.6	137.1	124.6	112.0	112.2	122.5	86.94	49.74	35.56	27.20	20.31	16.19	15.45	26.72	59.46	359.6	 1763	 2483	81.24	4.139	0.853	0.531	0.472	-0.177	-0.285	-0.133	-0.551	-0.066	-0.628	-0.663	-0.559	-0.742	-0.752	-0.268	-0.658	-0.487	-0.679	-0.745	-0.801	-0.598	-0.830	-1.472	-0.845	-1.125	-1.021	-0.678	-0.767	-0.623	-1.455
450.0	-46.96	76.08	93.66	127.2	178.9	208.3	227.1	242.6	235.5	243.5	235.3	242.5	214.3	211.0	183.9	172.8	161.7	153.8	145.5	138.4	133.8	135.0	134.3	140.2	139.6	139.4	139.2	137.7	138.2	133.7	125.1	111.1	100.3	103.5	100.8	68.44	42.25	30.14	24.11	17.91	14.97	14.09	19.61	85.59	451.6	 1528	 2093	820.0	24.95	0.949	0.576	0.117	-0.195	-0.320	-0.479	-0.381	-0.341	-0.412	-0.377	-0.433	-0.533	-0.463	-0.753	-0.674	-0.649	-0.620	-0.646	-0.613	-0.730	-0.972	-0.799	-1.150	-0.463	-1.044	-0.888	-1.316	-1.315
455.0	-31.73	43.43	271.3	97.13	153.2	200.6	193.1	214.9	227.0	238.9	238.6	230.0	210.6	192.1	172.0	158.0	143.7	143.0	132.7	126.9	128.6	124.1	125.2	129.2	125.9	132.6	131.3	133.4	130.0	127.3	122.1	110.6	93.70	88.42	85.76	89.07	56.09	33.62	26.18	20.82	16.60	13.74	12.89	24.87	104.7	348.0	953.8	 2427	568.3	25.93	0.711	0.277	0.336	0.062	-0.322	-0.160	-0.340	-0.264	-0.182	-0.319	-0.389	-0.533	-0.622	-0.699	-0.955	-0.954	-0.540	-0.552	-0.565	-1.175	-1.015	-0.566	-1.201	-1.070	-0.627	-1.347	-1.068
460.0	4.387	-16.67	404.6	241.0	172.4	187.2	176.6	205.2	208.1	225.0	217.5	209.3	206.7	178.9	161.0	153.0	136.5	129.3	119.1	112.4	116.4	116.7	115.5	116.3	121.8	123.1	130.8	125.4	124.8	123.3	118.6	105.3	91.32	79.68	69.84	81.88	71.03	40.45	28.68	22.31	17.38	14.12	10.97	11.85	27.39	81.39	231.2	 1357	 2323	421.8	11.55	0.541	0.356	0.011	-0.664	-0.358	-0.466	-0.033	-0.289	-0.616	-0.959	-0.523	-0.187	-0.594	-0.718	-0.973	-0.780	-0.780	-1.082	-1.257	-1.368	-0.988	-1.077	-0.841	-0.909	-0.816	-1.276
465.0	-51.95	3.856	373.8	526.2	154.6	173.4	164.8	191.2	190.6	206.6	202.9	198.9	189.4	173.5	152.8	140.0	129.7	116.4	112.4	109.0	102.4	107.1	112.4	108.5	112.8	116.8	116.8	116.4	118.6	117.2	110.2	100.7	90.77	78.66	65.81	67.66	73.97	53.39	31.74	23.15	18.52	14.16	11.74	9.759	11.18	22.33	54.90	351.2	 1647	 2011	326.9	2.651	0.695	0.162	-0.139	-0.531	-0.172	-0.326	-0.508	-0.757	-0.756	-0.653	-0.779	-0.911	-0.695	-1.237	-0.477	-0.526	-0.917	-1.155	-1.379	-0.907	-0.859	-1.256	-0.883	-1.549	-1.529
470.0	-71.06	-27.91	170.4	865.9	442.2	139.5	153.8	173.5	180.5	188.3	195.0	181.6	164.5	153.7	138.7	123.5	117.9	104.8	96.07	96.38	93.67	95.71	95.12	99.92	100.2	105.4	109.6	106.4	109.5	106.1	99.58	92.36	85.45	72.20	61.42	54.74	58.07	58.95	40.66	25.21	19.16	15.04	12.46	9.472	7.993	9.551	15.89	81.62	424.1	 1293	 1618	335.0	20.61	0.274	-0.033	-0.374	-0.376	-0.355	-0.275	-0.387	-0.567	-0.328	-0.526	-0.424	-0.582	-0.599	-0.328	-0.688	-0.894	-0.843	-0.719	-1.112	-0.972	-0.823	-1.042	-1.095	-1.498
475.0	-91.25	-47.19	20.16	561.5	 1135	200.4	125.3	156.0	168.6	179.1	167.6	164.3	162.8	132.8	129.3	114.7	101.1	95.59	87.16	83.73	82.64	83.81	86.12	87.88	93.17	90.73	96.64	97.77	98.93	92.91	91.85	84.44	77.00	68.28	59.03	50.14	45.55	48.78	49.80	32.01	19.33	16.83	11.71	10.17	7.518	7.348	7.243	21.02	96.56	292.7	731.1	 1646	504.8	23.29	0.210	-0.178	-0.102	-0.516	-0.979	-0.317	-0.895	-0.829	-0.677	-0.518	-0.372	-0.574	-0.642	-0.504	-1.287	-0.520	-0.558	-0.974	-0.803	-1.111	-1.627	-1.590	-1.221
480.0	-82.41	-75.84	12.23	224.1	 1445	493.5	111.2	143.6	149.4	153.5	152.6	158.1	147.2	130.3	114.7	101.0	93.74	88.39	82.01	76.74	75.46	74.38	78.21	83.73	84.65	86.00	88.98	86.57	89.95	87.46	84.08	81.97	70.62	64.75	55.87	47.99	41.12	38.30	44.99	37.80	22.65	15.09	12.48	10.65	8.012	7.555	5.352	7.761	23.91	67.17	175.9	929.7	 1724	424.0	6.059	-0.173	-0.358	-0.408	-0.797	-0.996	-0.881	-0.859	-0.951	-0.688	-0.762	-0.918	-0.949	-0.780	-1.327	-0.852	-1.338	-0.912	-1.175	-1.220	-1.468	-1.169	-1.103
485.0	-54.82	-68.08	19.72	98.53	 1066	 1154	126.8	139.4	144.7	139.2	159.2	136.5	132.8	117.3	106.2	99.42	85.48	75.58	71.87	73.83	73.17	68.17	73.73	73.60	78.44	80.00	80.73	81.96	80.63	82.86	78.00	75.29	68.14	62.36	53.07	45.29	38.63	33.07	36.66	41.07	28.95	16.09	12.59	9.896	8.302	6.599	5.933	4.917	7.532	17.07	40.98	240.8	 1213	 1584	70.68	0.580	0.065	-0.492	-0.648	-0.889	-0.724	-1.076	-0.829	-0.502	-0.974	-0.992	-0.921	-0.744	-1.032	-1.422	-1.279	-1.379	-1.047	-1.312	-0.822	-1.246	-1.148
490.0	-58.06	-31.20	27.85	55.53	404.5	 1562	596.0	128.6	123.1	135.1	135.2	127.8	114.6	103.3	97.10	87.97	75.84	71.68	69.49	63.09	63.71	64.22	65.78	67.65	68.21	70.92	74.68	75.99	73.54	74.96	71.96	68.92	63.05	56.77	50.21	42.76	36.34	30.76	30.07	33.84	34.93	23.11	13.49	10.15	7.964	6.645	6.252	4.403	4.476	6.100	10.68	55.70	308.5	973.8	 1365	336.9	20.82	0.191	-0.550	-0.680	-0.739	-0.866	-0.968	-0.817	-0.838	-0.701	-0.852	-0.694	-0.856	-1.180	-1.214	-1.372	-1.163	-1.232	-0.801	-1.028	-1.152
495.0	-70.76	-27.27	65.39	59.14	161.6	855.4	 1563	211.5	112.4	116.2	116.2	110.4	105.6	93.94	92.48	72.10	66.29	65.39	56.47	57.69	57.85	55.28	54.89	58.25	60.23	61.85	64.43	65.14	65.44	66.96	61.99	61.30	55.58	50.86	45.41	37.46	33.70	29.48	25.41	25.22	28.01	27.75	18.14	11.18	8.323	6.934	5.990	4.889	3.740	3.862	4.285	13.84	69.65	220.5	638.2	 1652	545.4	21.94	0.146	-0.555	-0.355	-0.571	-0.632	-0.907	-1.120	-1.356	-1.305	-0.048	-0.952	-0.912	-1.211	-1.067	-0.469	-1.006	-0.689	-1.426	-0.966
500.0	-76.61	-61.26	28.43	19.83	72.98	297.3	 1728	604.6	104.2	114.6	101.8	98.11	101.6	94.54	81.54	64.86	62.35	57.96	52.43	51.08	51.19	50.99	50.85	54.73	55.81	55.72	55.84	59.94	57.04	60.73	58.30	56.62	50.48	45.04	40.29	35.04	29.86	28.81	23.21	21.67	21.49	26.65	24.04	13.78	8.982	6.547	6.041	5.056	3.955	3.554	3.084	4.172	16.62	50.13	152.6	927.7	 1765	425.0	6.073	-0.415	-0.311	-0.403	-0.806	-1.247	-0.921	-1.035	-0.772	-0.579	-1.209	-1.079	-1.347	-0.882	-1.340	-1.015	-0.426	-1.368	-1.851
505.0	-61.40	-24.33	12.52	47.60	53.59	102.9	 1195	 1313	116.8	106.3	95.55	95.94	87.40	80.61	73.53	59.16	58.98	52.89	50.59	45.90	43.31	46.33	43.66	46.93	47.92	51.39	51.58	49.61	54.71	54.35	53.21	49.78	47.98	40.15	36.30	31.90	27.50	26.74	22.13	18.42	18.08	20.92	25.70	17.19	9.225	6.472	5.412	4.900	3.802	3.818	2.724	1.804	4.352	11.69	35.13	235.8	 1257	 1612	74.89	1.261	0.035	-0.547	-0.776	-1.039	-1.194	-0.654	-1.342	-0.705	-1.201	-1.548	-1.184	-1.099	-1.237	-0.805	-0.867	-1.154	-1.381
510.0	-92.51	-65.39	-3.064	44.85	51.23	64.65	408.7	 1621	655.3	96.85	76.00	89.40	74.62	63.79	57.70	52.55	50.53	45.13	43.70	41.80	38.80	38.86	38.91	39.86	42.21	42.05	45.04	44.25	45.75	44.90	46.86	45.54	40.28	35.93	31.94	28.35	25.21	23.73	19.75	17.23	16.00	14.60	18.77	19.46	12.91	7.394	5.618	4.867	4.144	3.091	2.552	2.174	2.063	3.408	8.533	53.33	320.0	 1001	 1308	329.4	19.63	-0.599	-0.394	-0.823	-1.130	-0.936	-1.479	-1.054	-1.296	-1.064	-1.179	-0.880	-1.378	-1.067	-1.118	-1.204	-1.216
515.0	-82.50	-52.53	-12.72	27.78	67.62	32.67	133.7	772.0	 1637	222.2	65.62	74.23	65.96	48.67	53.66	45.71	39.44	38.82	39.67	33.57	31.59	34.87	33.55	34.56	35.53	34.86	37.93	36.55	40.01	39.53	39.29	38.36	36.56	30.59	27.61	24.95	24.06	20.30	17.11	15.65	13.00	12.28	12.95	15.44	16.16	10.13	5.073	4.238	3.723	3.155	2.436	2.771	1.672	1.785	2.171	12.75	71.66	225.1	602.3	 1501	504.6	16.41	-0.063	-0.363	-0.889	-1.198	-1.513	-0.845	-1.234	-1.437	-1.684	-1.187	-1.145	-1.417	-1.416	-0.945	-1.370
520.0	-77.52	-32.13	-42.46	24.61	75.45	32.66	61.59	246.6	 1683	697.5	64.08	66.75	54.72	43.25	45.51	44.05	36.93	31.66	34.91	31.03	27.74	28.44	28.15	30.60	31.89	32.34	33.58	33.15	33.36	35.64	35.95	34.27	32.89	29.05	26.98	22.69	20.82	19.50	16.17	13.81	12.10	11.11	10.04	11.51	15.04	13.61	6.945	3.837	3.923	2.926	2.363	2.164	1.480	1.029	1.475	3.430	16.01	50.79	142.9	855.4	 1475	82.23	4.845	-0.398	-0.843	-1.015	-1.056	-0.612	-1.022	-0.970	-1.167	-1.254	-1.679	-0.899	-1.720	-1.392	-1.722
525.0	-106.4	-38.33	-32.89	8.990	69.57	63.92	31.85	88.77	 1016	 1473	110.0	58.60	45.51	39.97	39.72	35.49	32.73	28.87	29.26	28.35	27.00	27.49	23.91	25.80	27.56	28.75	29.06	29.91	30.76	32.70	32.01	28.78	25.80	26.41	24.54	19.66	18.08	16.57	13.84	12.10	11.18	8.340	8.974	8.575	10.88	13.87	10.21	4.246	3.326	2.851	2.019	1.673	0.959	0.816	0.786	0.851	3.703	11.34	31.84	214.1	 1033	 1240	72.21	0.343	-1.074	-0.412	-1.287	-0.840	-1.520	-0.750	-0.561	-1.069	-1.306	-1.326	-1.703	-1.317	-1.696
530.0	-86.79	-64.92	-27.47	-19.45	18.00	74.44	34.87	56.55	317.5	 1500	733.0	54.69	40.14	34.95	33.43	27.02	26.78	25.46	24.74	21.92	21.94	23.69	21.70	22.33	23.79	23.07	24.76	25.25	26.09	26.77	27.18	24.25	23.04	22.63	19.38	18.10	15.76	14.18	12.36	10.90	10.32	8.546	7.329	7.322	7.892	10.24	11.63	6.125	3.152	2.762	2.344	1.359	0.951	0.970	0.625	0.423	1.025	2.536	6.980	48.00	259.0	804.0	887.1	307.2	15.34	-0.928	-1.106	-0.913	-1.256	-0.809	-0.900	-1.053	-1.329	-1.065	-1.423	-1.491	-1.576
535.0	-110.4	-50.84	-26.79	-31.31	0.799	68.13	69.52	34.75	97.32	603.0	 1633	197.0	28.48	25.29	27.35	23.28	22.07	19.53	19.30	16.01	18.12	16.76	18.59	18.33	21.07	21.00	20.54	20.78	22.04	21.28	22.79	21.52	20.29	18.82	16.49	14.72	13.59	13.41	10.96	8.962	8.337	7.010	6.351	5.367	5.545	6.694	9.924	9.065	5.058	1.935	1.990	1.033	1.204	0.910	0.741	0.625	0.292	0.370	1.501	11.03	57.05	180.5	453.4	 1244	433.3	10.41	-0.856	-0.995	-0.836	-0.924	-1.121	-1.382	-1.405	-1.560	-1.614	-1.247	-1.894
540.0	-111.1	-92.91	-23.23	-18.49	-8.460	47.34	69.39	35.42	52.89	178.1	 1506	723.9	29.17	22.60	27.34	20.73	18.71	17.22	13.49	16.24	15.78	15.25	16.11	15.89	15.78	17.77	18.47	19.32	20.97	18.31	19.18	19.07	17.83	16.54	12.75	13.03	11.30	11.36	10.17	8.541	8.312	5.874	5.616	5.216	4.565	5.016	6.699	8.561	6.592	2.785	2.177	1.097	0.945	0.191	0.523	0.557	0.540	0.012	-0.412	2.325	12.47	39.50	106.7	707.9	 1213	79.82	2.194	-1.067	-0.664	-0.887	-1.371	-1.625	-1.668	-1.252	-1.672	-1.167	-1.992
545.0	-86.43	-29.86	-31.81	-14.93	10.99	18.36	80.36	25.63	43.58	53.73	832.6	 1309	81.22	24.75	22.89	18.72	17.65	15.42	14.51	14.73	13.94	11.89	13.03	15.30	14.24	15.15	16.18	14.88	16.10	15.60	18.02	16.33	16.41	14.57	11.98	11.69	10.54	9.228	8.688	7.323	7.756	5.018	5.240	3.743	3.810	3.622	3.812	7.004	7.603	4.091	1.888	0.900	0.591	0.625	0.698	0.140	0.414	0.044	-0.032	0.976	2.665	8.461	23.77	177.1	899.3	671.5	63.84	-0.604	-0.620	-0.878	-1.029	-1.489	-1.232	-1.476	-1.182	-1.522	-1.642
550.0	-113.3	-45.57	-60.74	-12.60	-10.49	-8.987	40.99	58.87	21.42	35.41	263.7	 1299	670.3	21.75	17.19	12.36	11.81	12.78	9.916	10.28	11.29	10.89	11.17	11.16	11.90	12.29	13.25	13.11	13.90	13.21	13.58	13.77	12.66	10.92	9.622	9.652	8.221	7.710	7.066	5.970	5.775	4.491	4.142	3.468	3.239	2.939	2.693	4.006	5.512	5.372	2.911	0.567	0.468	0.398	0.328	-0.203	0.043	-0.171	-0.122	-0.159	0.286	1.426	4.945	38.91	227.7	630.8	771.8	245.6	7.880	-0.776	-1.040	-1.035	-1.296	-1.194	-1.125	-1.515	-1.565
555.0	-57.59	-66.08	-19.17	-21.91	-18.55	-5.201	13.44	83.23	39.96	50.35	100.2	501.5	 1439	166.8	14.90	9.972	9.177	10.47	8.442	9.110	6.052	6.993	9.262	8.899	9.613	8.337	10.55	8.671	10.92	10.53	11.93	9.917	11.09	7.646	7.253	7.793	6.614	6.159	5.695	4.087	4.209	3.793	3.570	2.649	2.282	1.869	2.104	2.608	2.427	4.552	4.053	1.605	0.536	0.056	-0.593	0.164	-0.646	-0.291	0.082	-0.073	-0.644	0.045	1.126	8.230	50.21	142.0	419.9	969.2	82.81	3.851	-1.027	-1.203	-0.863	-1.240	-1.252	-1.381	-1.892
560.0	-93.69	-65.86	-38.19	-31.98	-9.540	0.308	4.532	70.76	81.98	80.88	74.32	185.4	 1263	641.8	11.81	6.330	7.243	7.210	7.591	5.902	5.987	4.950	6.430	6.214	7.897	7.484	7.253	7.842	8.385	8.539	10.16	7.825	7.759	6.409	5.803	7.011	5.901	5.221	5.260	3.492	3.779	2.649	2.600	2.378	1.999	1.166	2.129	1.717	1.298	3.029	4.326	2.430	0.194	0.096	-0.501	-0.063	-0.383	-0.562	0.448	-0.223	-0.722	-0.185	-0.195	1.264	10.60	31.45	99.69	620.5	677.1	70.74	0.700	-1.015	-1.041	-1.311	-1.241	-1.589	-1.269
565.0	-111.6	-82.84	-17.99	-32.59	-35.55	19.92	-4.770	62.53	87.03	82.65	105.1	115.7	640.2	 1188	44.72	4.669	7.140	4.753	6.321	4.345	3.831	3.554	4.844	4.983	6.224	7.735	6.843	7.136	6.359	7.073	7.333	6.726	6.381	6.242	4.503	5.623	5.016	3.795	4.373	3.015	2.312	2.129	1.547	1.194	1.438	1.289	1.520	1.049	0.898	1.523	2.612	2.590	0.816	0.228	-0.096	-0.552	-0.517	-0.207	-0.565	-0.183	-1.253	-0.641	-0.905	-0.386	1.611	6.778	22.20	161.5	698.5	594.1	48.80	-1.088	-1.299	-1.204	-1.169	-1.422	-1.377
570.0	-97.36	-75.40	-51.64	-40.19	-22.27	-4.893	-3.646	32.78	105.1	116.4	129.2	114.5	223.8	 1049	469.3	7.033	4.338	4.161	2.387	3.664	2.776	2.788	3.065	4.587	5.148	5.178	4.788	4.550	4.346	4.843	5.261	4.735	4.068	3.680	3.760	3.871	3.450	1.899	2.763	2.358	1.909	1.153	1.872	1.355	0.780	0.780	0.833	0.862	0.364	0.951	1.163	1.845	1.527	0.517	-0.265	-0.650	-0.727	-0.666	-0.466	-0.238	-0.735	-0.285	-0.178	-0.376	-0.424	0.945	4.515	35.87	186.3	514.4	561.6	141.7	2.988	-0.955	-1.462	-1.513	-1.225
575.0	-124.1	-45.14	-55.84	-17.88	-22.86	-4.550	-3.988	35.01	94.19	168.8	153.9	141.1	119.2	372.6	 1116	108.0	3.456	3.787	2.614	2.128	2.668	1.712	3.065	0.804	1.940	4.438	2.605	3.623	3.887	3.713	3.268	2.689	3.170	2.299	2.278	2.058	2.422	1.801	1.887	1.079	1.289	0.862	1.244	1.180	0.493	0.435	0.866	-0.011	0.283	0.380	0.570	0.500	1.580	1.434	-0.254	-0.575	-0.249	-0.856	-0.297	-0.585	-0.942	-0.631	-0.819	-0.715	-0.597	-0.377	0.336	7.207	41.37	115.9	346.6	649.8	75.04	1.461	-0.692	-1.234	-0.966
580.0	-107.9	-69.71	-42.81	-20.08	-34.85	9.959	-10.31	42.06	78.46	170.8	169.5	139.7	93.87	107.5	937.0	460.7	1.711	2.415	4.487	-2.297	0.898	1.350	1.997	0.862	1.565	3.920	2.059	0.868	2.716	2.825	2.082	1.875	2.030	1.660	2.068	1.676	1.443	1.309	2.271	0.594	1.269	0.318	1.105	0.647	0.327	0.436	0.031	-0.123	0.143	0.269	0.208	-0.490	-0.025	1.249	0.100	-0.594	-0.818	-0.727	-0.665	-0.411	-1.182	-0.365	-0.577	-0.460	-0.513	-1.134	-0.466	1.163	8.793	25.09	85.03	476.1	525.6	55.07	0.130	-1.481	-1.627
585.0	-110.5	-90.14	-76.82	-26.65	-28.48	-0.705	0.687	32.47	62.05	160.8	195.7	136.6	95.19	44.58	445.1	896.9	30.26	2.103	-0.281	-0.535	-0.263	0.148	0.543	0.862	0.323	0.372	1.274	0.886	1.109	2.185	1.676	2.616	1.261	1.810	2.529	0.209	0.745	0.253	0.612	1.134	0.358	0.002	0.355	0.668	-0.002	0.498	0.247	-0.245	-0.237	-0.147	-0.200	-0.851	-0.265	1.079	0.399	0.326	-0.436	-0.807	-0.865	-0.695	-0.940	-0.816	-0.875	-0.997	-0.700	-0.589	-0.804	-0.246	1.080	4.852	18.12	130.2	543.7	397.4	30.93	-1.494	-1.337
590.0	-84.09	-80.03	-50.83	-35.08	-31.63	-7.342	-4.601	25.77	57.87	129.7	190.7	143.7	85.88	25.87	112.8	742.3	335.9	3.082	-0.705	-0.076	-1.307	-0.029	0.393	0.624	-1.287	0.459	1.198	0.774	1.407	1.465	1.292	1.538	0.355	0.759	0.708	0.457	0.549	0.317	0.294	0.512	0.202	-0.266	0.353	0.148	-0.348	-0.035	-0.166	-0.318	-0.323	-0.431	-0.245	-0.883	-0.330	0.135	0.052	0.375	-0.459	-0.557	-0.954	-0.802	-1.042	-1.028	-0.694	-0.771	-0.941	-0.995	-0.977	-0.938	-0.607	0.164	3.772	28.16	151.3	386.7	376.3	45.75	0.758
595.0	-68.58	-70.13	-46.35	-35.68	-27.99	0.232	8.463	32.33	57.14	107.7	181.6	154.1	76.48	22.43	29.04	241.1	737.3	72.92	-0.232	0.048	1.128	-1.461	-0.182	-0.314	-0.449	0.019	0.924	0.343	0.700	0.400	0.024	0.024	-0.343	0.904	0.064	0.253	0.850	0.443	0.071	0.050	-0.392	-0.189	0.097	-0.216	-0.511	-0.687	-0.057	-0.577	-0.173	-0.733	-0.500	-1.121	-0.929	-0.764	-0.330	0.289	-0.257	-0.347	-0.793	-0.666	-1.332	-1.472	-0.643	-1.019	-1.078	-0.637	-1.097	-1.097	-1.021	-1.150	0.032	5.269	32.90	86.90	276.5	446.9	63.96
600.0	-58.94	-54.06	-55.49	-46.48	-22.82	-2.792	4.479	30.16	57.47	104.6	141.7	155.0	79.03	17.52	5.314	60.65	630.5	308.3	-2.183	0.009	-0.893	-2.651	-1.122	-0.085	-0.015	0.071	1.099	0.392	0.306	-0.686	-0.311	0.130	0.247	0.408	0.324	-0.231	0.218	-0.444	0.326	-0.547	-0.104	-0.568	-0.112	-0.847	-0.237	-0.507	-0.539	-0.786	-0.762	-0.620	-0.594	-0.728	-0.994	-0.984	-0.385	-0.034	0.052	-0.407	-1.313	-0.938	-1.136	-1.264	-0.943	-0.813	-1.173	-0.861	-1.555	-1.147	-1.059	-1.198	-0.922	0.391	6.620	18.44	69.42	378.8	367.4
605.0	-77.48	-91.27	-49.15	-56.70	-20.47	-22.48	-4.497	26.97	58.39	82.40	108.7	149.6	88.65	16.59	1.246	16.59	299.0	603.8	16.31	-2.885	-0.830	-0.540	-0.858	-0.465	-1.195	-0.855	0.303	-0.929	-0.301	-0.242	0.241	0.187	-0.366	-0.489	-0.121	-0.423	-0.125	-0.608	0.028	-0.398	-0.436	-1.296	-0.526	-0.865	-0.763	-0.441	-0.845	-1.006	-0.480	-0.441	-0.512	-0.171	-0.965	-1.393	-0.701	0.005	0.163	-0.717	-0.929	-1.014	-1.046	-0.836	-0.984	-1.121	-0.799	-0.883	-0.897	-1.260	-0.704	-1.152	-0.856	-0.707	0.469	3.306	15.12	110.5	426.1
610.0	-66.55	-72.86	-38.98	-46.85	-34.54	-15.37	-11.96	13.44	38.25	64.43	90.99	126.1	96.62	14.77	3.943	4.344	77.13	514.0	236.5	-1.475	-2.613	-0.793	0.199	-0.802	-1.787	-0.736	-0.604	-1.084	-0.623	-0.628	-0.816	-0.959	-0.783	-0.869	-0.800	-0.217	-0.515	-0.639	-0.567	-0.358	-0.799	-0.904	-0.588	-0.895	-0.830	-0.633	-1.094	-1.053	-0.644	-0.704	-0.286	-0.479	-0.501	-1.030	-0.935	-0.703	-0.790	-0.374	-0.610	-1.152	-1.112	-1.422	-1.300	-1.093	-1.069	-1.134	-0.703	-0.758	-1.102	-0.904	-1.445	-1.208	-0.753	-0.189	2.430	23.35	123.3
615.0	-103.7	-24.02	-37.28	-21.78	-28.47	-7.707	-16.19	7.763	27.72	52.46	83.61	76.53	80.41	26.38	1.236	-0.430	16.12	172.8	534.2	42.63	-0.378	-1.132	-1.481	-1.536	-1.379	-1.215	-0.413	-1.001	-0.486	0.162	-0.425	-0.957	-1.106	-1.497	-0.901	-0.515	-0.973	-1.031	-0.867	-0.560	-1.357	-0.899	-0.830	-1.132	-1.088	-0.363	-1.412	-0.962	-0.712	-0.781	-0.869	-1.035	-0.801	-0.977	-1.122	-0.762	-1.240	-0.375	-0.450	-0.569	-1.509	-1.118	-1.658	-1.290	-1.315	-1.062	-0.880	-1.048	-1.121	-1.495	-1.497	-1.680	-1.029	-1.016	-0.630	4.031	25.81
620.0	-79.63	-77.90	-40.82	-35.85	-22.97	-4.495	-16.16	6.625	22.43	48.83	59.11	60.96	71.57	39.29	0.230	-0.065	1.623	41.71	461.2	225.9	-1.698	-0.801	-1.373	-1.113	-1.222	-2.586	-1.234	-1.195	-1.650	-0.832	-1.404	-1.915	-1.261	-1.525	-0.918	-0.185	-1.253	0.072	-0.912	-0.737	-0.779	-0.885	-0.807	-1.268	-0.955	-0.811	-0.598	-1.390	-0.839	-0.421	-0.692	-0.811	-0.860	-1.035	-0.993	-1.040	-0.791	-0.890	-1.158	-0.528	-1.219	-1.196	-1.182	-1.276	-1.442	-1.207	-1.266	-1.398	-1.131	-1.361	-1.503	-1.716	-1.436	-1.416	-0.793	-0.118	4.411
625.0	-97.79	-49.21	-29.94	-35.01	-24.02	-24.08	-8.003	-2.403	18.74	37.29	55.75	60.47	46.95	39.31	1.329	-1.403	-1.504	8.814	228.1	447.1	9.991	-1.701	-1.172	-0.617	-1.832	-0.684	-1.799	-1.784	-1.920	-0.506	-1.588	-1.162	-1.839	-1.634	0.965	-0.299	-1.133	-0.534	-1.417	-0.259	-1.215	-1.326	-1.131	-0.697	-1.203	-1.053	-0.805	-1.276	-1.405	-0.534	-0.743	-0.919	-0.841	-1.388	-1.087	-0.730	-1.231	-1.285	-0.893	-0.743	-0.978	-1.092	-1.032	-1.469	-0.937	-1.059	-0.731	-1.004	-1.539	-1.305	-1.501	-1.518	-1.168	-1.677	-1.143	-1.009	-0.285
630.0	-94.51	-73.24	-29.44	-32.27	-41.06	-17.13	-20.29	-1.084	12.81	22.14	43.44	41.79	28.07	34.13	9.118	-1.549	-3.342	1.213	58.78	411.0	179.1	-0.126	-0.617	-1.794	-2.156	-1.640	-1.846	-1.458	-1.430	-1.100	-2.039	-1.296	-0.941	-1.725	-1.066	-0.794	-1.029	-1.100	-1.146	-0.727	-1.243	-1.357	-0.850	-0.997	-1.109	-0.791	-0.758	-1.211	-1.086	-0.553	-0.644	-0.941	-0.920	-1.312	-1.084	-0.821	-1.136	-1.216	-0.996	-0.727	-0.852	-1.076	-1.158	-1.233	-1.140	-1.359	-1.334	-1.503	-1.754	-1.439	-1.339	-1.384	-1.247	-1.424	-1.384	-1.442	-1.889
635.0	-61.96	-48.24	-40.75	-32.25	-44.13	-26.46	-13.01	0.374	2.339	14.38	30.67	34.18	17.17	19.26	21.30	2.248	-0.444	-1.078	12.20	145.0	423.8	34.37	-2.214	-1.934	-3.279	-2.155	-2.046	-0.235	-2.177	-0.867	-0.859	-1.883	-1.013	-1.692	-0.890	-1.712	-1.267	-0.971	-1.140	-0.666	-0.950	-1.626	-0.984	-1.150	-1.207	-0.884	-0.627	-1.268	-0.743	-0.701	-0.576	-1.096	-0.424	-1.165	-1.117	-1.283	-1.491	-1.235	-0.751	-0.648	-1.111	-1.359	-1.280	-1.108	-0.886	-1.135	-1.350	-1.344	-1.579	-1.495	-0.815	-1.552	-1.170	-1.064	-1.405	-1.611	-1.206
640.0	-124.6	-67.15	-63.64	-34.60	-29.28	-19.79	-4.270	-12.96	-6.609	19.10	27.97	25.57	17.39	10.49	23.51	6.113	1.693	-0.343	1.279	35.82	373.0	165.3	-1.219	-1.734	-3.113	-1.525	-1.947	-1.978	-2.270	-0.672	-1.170	-1.512	-0.987	-1.389	-1.098	-1.971	-1.967	-0.605	-0.896	-0.393	-1.263	-1.250	-1.308	-1.905	-1.287	-0.965	-1.010	-1.176	-1.102	-1.034	-0.722	-1.230	-1.176	-1.146	-1.181	-1.125	-1.398	-1.080	-0.779	-0.891	-1.054	-1.249	-1.527	-0.855	-0.837	-0.793	-1.042	-0.741	-1.262	-1.265	-1.260	-1.692	-0.952	-1.345	-1.644	-1.701	-1.281
645.0	-111.5	-67.21	-72.15	-37.87	-28.66	-20.50	-10.32	-13.64	0.661	8.689	23.95	19.33	10.08	3.171	17.71	12.71	1.734	-2.128	-2.407	7.800	188.8	339.8	7.123	-1.538	-0.600	-1.479	-2.037	-2.334	-2.275	-1.810	-1.036	-2.129	-1.344	-1.314	-0.805	-0.611	-1.241	-0.975	-0.579	-1.511	-0.624	-1.384	-1.054	-1.052	-1.078	-1.190	-0.911	-1.226	-1.026	-1.130	-0.833	-0.636	-0.625	-1.344	-1.069	-1.332	-1.601	-1.168	-0.854	-0.893	-0.877	-1.093	-1.070	-0.478	-1.052	-1.096	-0.867	-1.332	-0.991	-1.442	-1.794	-1.276	-1.263	-0.997	-1.414	-1.482	-1.539
650.0	-86.03	-81.46	-63.41	-47.99	-37.20	-28.21	-7.317	-9.463	6.727	7.364	14.62	19.93	7.942	1.811	11.64	16.18	0.266	-2.015	-1.131	-2.190	55.30	392.6	67.24	-1.036	-1.968	-2.221	-1.573	-1.644	-2.314	-2.309	-0.957	-2.309	-1.885	-0.982	-1.048	-0.951	-1.334	-0.874	-1.085	-0.972	-1.238	-1.098	-1.511	-1.127	-0.858	-0.814	-1.082	-1.522	-0.588	-1.159	-1.043	-1.186	-0.912	-0.836	-1.301	-1.327	-1.593	-1.143	-1.054	-0.757	-1.002	-1.019	-1.218	-0.586	-1.417	-1.187	-1.546	-1.538	-1.284	-1.334	-1.335	-1.380	-0.525	-1.357	-1.778	-1.880	-1.862
