Sample:	'1
File name:	Default.FD3
Run date:	'15:05:38, 10/09/2023
Operator:	dsjg
Comment:	'

Instrument
Model:	F-2700 FL Spectrophotometer
Serial number:	2198-001
ROM Version:	4J14000 07

Instrument parameters
Measurement type:	3-D scan
Data mode:	Fluorescence
EX  Start WL:	220.0 nm
EX  End WL:	600.0 nm
EX Sampling interval:	5.0 nm
EM  Start WL:	230.0 nm
EM  End WL:	650.0 nm
EM Sampling interval:	5.0 nm
Scan speed:	12000 nm/min
EX Slit:	5.0 nm
EM Slit:	5.0 nm
PMT Voltage:	700 V
Response:	Auto 
Corrected spectra:	Off
Contour interval:	50.000

Peak integration
Integration method:	Rectangular
Sensitivity:	1
Threshold:	1.000

Peaks
No.	ApexEX/EM(nm)	Height(Data)
1	275.0/330.0	827.3
2	275.0/615.0	55.33

Data points
	220.0	225.0	230.0	235.0	240.0	245.0	250.0	255.0	260.0	265.0	270.0	275.0	280.0	285.0	290.0	295.0	300.0	305.0	310.0	315.0	320.0	325.0	330.0	335.0	340.0	345.0	350.0	355.0	360.0	365.0	370.0	375.0	380.0	385.0	390.0	395.0	400.0	405.0	410.0	415.0	420.0	425.0	430.0	435.0	440.0	445.0	450.0	455.0	460.0	465.0	470.0	475.0	480.0	485.0	490.0	495.0	500.0	505.0	510.0	515.0	520.0	525.0	530.0	535.0	540.0	545.0	550.0	555.0	560.0	565.0	570.0	575.0	580.0	585.0	590.0	595.0	600.0
230.0	875.0	9999.9	9999.9	 3824	106.0	39.03	32.20	28.20	25.19	23.98	22.71	21.80	21.39	20.58	19.72	20.02	19.80	20.14	20.64	20.89	20.87	20.90	20.93	21.48	21.46	21.38	21.44	20.70	21.03	21.56	21.53	21.36	21.70	21.98	20.69	20.07	19.20	18.30	17.25	16.52	16.00	15.37	15.21	15.19	14.74	14.93	19.15	49.34	98.32	96.56	50.54	16.08	12.18	11.67	11.39	11.29	11.11	10.79	10.01	9.641	9.023	8.531	8.163	7.987	7.934	7.671	7.280	6.789	6.323	5.758	5.125	4.600	4.123	3.747	3.441	3.207	3.028
235.0	284.4	 3346	9999.9	9999.9	 3144	170.9	42.35	36.18	30.73	27.97	26.61	24.14	24.09	22.78	21.36	20.94	21.38	21.59	21.23	22.00	21.54	21.89	21.47	22.09	22.24	22.51	22.19	21.68	21.17	22.07	21.89	21.69	21.29	21.57	21.34	20.80	19.07	18.99	17.57	16.82	16.44	16.02	15.50	15.33	15.50	14.93	15.65	22.98	39.95	70.97	106.6	126.0	26.36	19.58	12.43	11.84	11.55	10.89	10.47	9.791	9.108	8.491	8.168	8.309	8.105	7.960	7.544	6.814	6.618	5.685	5.157	4.697	3.931	3.820	3.596	3.399	2.888
240.0	157.3	843.3	 4953	9999.9	9999.9	 2399	100.3	46.11	38.04	33.19	30.64	27.93	26.02	23.70	23.30	23.13	22.34	22.35	22.60	22.72	22.93	22.47	22.36	22.74	22.53	23.35	23.52	23.05	22.30	22.56	21.94	22.17	20.91	21.33	21.19	20.94	19.70	19.04	17.75	17.57	16.55	16.40	15.68	15.71	15.40	15.09	14.90	16.79	20.07	28.56	55.20	129.2	166.3	135.4	25.34	16.50	11.56	11.00	10.74	10.09	9.114	8.996	8.440	8.204	8.034	8.006	7.499	7.044	6.372	5.459	5.265	4.947	4.124	3.843	3.584	3.393	2.945
245.0	123.7	277.7	 1265	 8109	9999.9	9999.9	 1695	70.46	47.34	42.00	36.76	32.95	30.15	26.94	25.71	24.60	24.09	23.71	24.04	23.75	23.68	22.89	23.82	23.25	23.01	23.66	24.15	24.15	23.54	23.67	22.76	22.32	20.71	20.99	20.70	20.75	20.35	19.06	18.57	18.02	17.23	16.63	16.42	15.86	15.76	15.24	15.08	15.46	15.40	17.14	23.11	49.48	110.3	197.8	188.1	120.8	22.93	12.56	10.94	10.35	9.607	9.182	8.624	8.354	8.106	7.944	7.394	7.220	6.084	5.884	5.434	4.848	4.236	3.844	3.811	3.411	3.115
250.0	127.0	150.9	361.3	 2043	 8308	9999.9	9999.9	 6623	132.0	63.98	51.12	44.09	37.50	32.56	30.40	28.12	26.58	26.26	26.61	25.29	25.64	23.76	24.04	24.53	24.57	24.75	24.62	25.06	25.12	24.40	23.12	22.65	21.26	20.94	20.59	20.52	20.23	19.75	18.74	18.41	17.43	17.16	16.79	16.32	16.12	15.41	15.44	15.11	14.66	14.56	15.34	21.13	35.61	70.52	118.8	183.1	209.6	162.8	94.43	18.21	11.55	9.689	8.967	8.703	8.351	8.156	7.582	7.223	6.403	5.830	5.311	4.746	4.396	4.112	3.667	3.433	3.220
255.0	144.2	119.0	162.0	533.0	 1934	 4732	9999.9	9999.9	9999.9	164.7	76.04	60.51	51.34	42.77	38.33	34.26	30.55	30.48	30.06	28.48	27.43	26.53	25.12	26.11	25.80	25.97	26.10	26.27	26.32	25.54	25.40	23.69	22.76	21.69	20.40	20.27	19.38	19.66	19.14	18.45	17.97	17.28	17.54	16.88	16.35	16.52	15.36	15.39	14.96	14.43	13.61	14.76	17.63	25.34	36.26	52.66	88.85	195.0	334.3	215.5	144.8	21.48	10.35	9.102	8.744	8.712	7.827	7.204	6.576	6.129	5.431	4.912	4.290	4.190	3.798	3.599	3.294
260.0	148.7	121.9	121.7	202.2	517.2	 1185	 7878	9999.9	9999.9	 1603	142.0	82.78	66.12	52.78	45.92	39.24	35.28	35.11	32.30	30.59	29.35	28.18	26.85	27.46	27.77	27.51	26.82	26.76	27.17	26.78	26.01	25.79	23.67	22.39	20.40	20.29	19.59	19.53	19.24	19.35	18.65	17.69	17.54	17.58	16.79	17.16	16.07	15.59	14.72	14.25	13.79	13.48	13.92	15.09	17.69	21.54	29.79	62.22	161.1	313.4	442.8	207.6	28.53	17.05	9.582	8.828	8.331	7.412	6.734	6.402	5.733	4.979	4.496	4.158	3.749	3.610	3.444
265.0	153.3	140.0	112.3	127.6	203.0	359.5	 2013	9999.9	9999.9	9999.9	 1354	128.8	87.14	69.81	55.06	47.28	42.26	38.44	36.28	34.01	32.03	30.14	28.41	28.56	28.51	28.45	27.04	27.90	28.22	27.42	26.86	26.82	24.83	22.74	21.32	20.44	20.36	19.42	19.13	19.15	18.96	17.70	17.59	17.84	17.16	16.91	16.62	16.34	15.09	14.51	13.55	13.20	12.96	13.12	13.89	14.68	15.90	23.14	46.44	107.4	276.5	468.6	492.1	187.9	24.60	11.03	8.581	7.781	7.067	6.823	5.843	5.282	4.778	4.302	3.861	3.577	3.615
270.0	188.2	154.0	123.0	118.8	133.0	180.1	557.3	 2629	9999.9	9999.9	9999.9	9999.9	422.5	105.5	80.44	65.25	53.12	47.94	43.77	39.93	37.33	34.36	32.49	31.44	30.98	30.75	30.14	29.56	29.49	29.42	28.75	27.74	26.17	24.82	23.22	21.68	20.58	19.81	18.97	18.70	18.62	18.35	18.17	18.13	18.22	17.88	17.30	16.62	15.71	14.79	14.22	13.51	12.85	13.12	13.07	13.20	13.38	14.76	19.60	32.88	73.87	155.5	291.0	429.9	383.7	364.3	118.7	18.22	10.50	7.431	6.349	5.840	5.029	4.681	4.321	3.942	3.815
275.0	230.5	181.7	137.3	126.9	121.5	143.4	239.8	706.2	 2379	 7275	9999.9	9999.9	 8325	512.8	127.1	92.77	73.73	62.61	55.51	49.59	44.37	40.84	36.82	36.65	34.49	33.56	33.28	32.16	31.36	31.20	31.10	29.38	28.51	26.44	24.97	23.77	21.97	20.77	19.45	18.89	18.40	18.82	18.51	18.00	18.70	18.27	17.96	17.32	16.15	15.44	14.68	13.97	13.19	13.33	13.11	13.14	13.06	13.03	14.13	16.28	25.07	43.34	73.54	109.7	172.7	455.7	769.4	741.0	190.3	22.16	8.141	6.599	5.824	5.249	4.768	4.619	4.161
280.0	252.3	203.9	164.7	136.0	131.9	138.6	173.3	289.3	676.6	 1871	9999.9	9999.9	9999.9	 6743	362.5	130.2	98.03	76.89	66.46	57.24	51.55	46.81	42.22	39.95	37.74	35.51	35.67	34.45	33.88	32.80	32.36	30.95	29.42	28.20	26.59	25.37	23.57	21.68	20.29	19.35	18.69	18.69	19.42	19.04	18.77	19.03	18.36	18.09	16.92	16.10	15.36	14.39	13.91	13.82	13.36	13.14	13.44	13.14	12.90	12.89	14.25	18.65	25.48	33.27	48.37	132.5	367.2	791.5	980.8	241.0	30.86	16.26	6.967	6.034	5.697	5.023	4.555
285.0	287.0	239.3	191.2	155.5	144.6	147.4	161.2	202.0	309.8	612.3	 2695	9999.9	9999.9	9999.9	 5236	233.7	130.5	101.0	84.26	67.75	61.13	54.33	48.03	44.90	42.43	39.19	38.74	36.85	36.50	34.96	33.67	31.60	29.69	29.90	28.22	26.66	24.89	22.67	21.67	20.29	19.39	18.92	19.26	19.26	19.15	19.53	19.20	18.27	17.21	16.33	15.84	15.32	14.16	14.41	14.28	13.90	13.69	13.42	12.69	12.57	12.71	13.32	14.90	16.47	19.70	38.52	94.18	255.9	631.2	 1007	 1054	226.0	25.73	9.958	6.425	5.891	5.379
290.0	375.3	300.2	232.7	190.3	172.4	169.2	175.1	201.9	255.4	375.2	881.6	 2984	9999.9	9999.9	9999.9	9999.9	375.2	158.2	121.8	94.95	79.74	66.84	59.31	53.21	49.07	46.11	43.79	41.79	40.33	38.41	37.22	35.13	33.16	31.32	29.53	28.47	27.07	25.09	23.24	21.71	20.58	19.88	19.53	19.36	20.01	20.14	19.86	19.37	18.48	17.36	16.58	15.97	15.12	15.17	14.67	14.61	14.33	14.16	13.26	12.84	13.25	12.94	13.02	13.46	14.08	17.86	29.87	66.28	158.1	336.1	650.2	918.9	 1125	758.9	134.5	18.62	10.37
295.0	495.8	416.4	298.8	238.4	206.4	199.9	201.4	225.3	282.4	389.9	551.3	 1057	 2650	 9262	9999.9	9999.9	9999.9	466.8	185.8	141.1	110.8	89.51	76.41	66.92	60.45	54.48	50.57	47.10	45.29	42.32	41.30	38.87	36.20	34.01	31.66	30.49	28.76	27.28	25.84	23.67	21.91	21.09	20.72	20.15	20.58	20.82	21.05	20.34	19.47	18.33	17.64	17.12	16.16	15.92	15.84	15.51	15.50	15.02	14.04	14.03	13.61	13.53	13.38	13.50	13.45	14.14	16.51	24.39	44.40	83.87	153.8	227.3	462.4	 1063	 1698	 1520	228.1
300.0	589.0	497.6	366.6	285.5	235.0	224.4	235.0	258.8	315.6	430.1	540.2	694.7	 1034	 2540	9999.9	9999.9	9999.9	9999.9	394.3	193.1	146.4	112.2	93.60	81.65	70.80	63.28	58.14	53.14	50.56	47.60	45.02	41.89	38.76	36.24	33.33	32.50	29.96	29.09	27.42	25.52	23.27	22.43	22.06	20.97	20.81	21.41	21.56	21.09	20.61	19.10	18.09	17.77	17.10	17.03	16.54	16.13	16.20	15.79	15.08	14.66	14.44	14.21	13.71	14.23	13.81	13.68	13.98	15.54	19.76	27.97	42.97	59.26	113.5	307.7	874.2	 1841	 2043
305.0	674.2	582.1	428.5	314.1	256.0	244.6	255.6	290.4	356.5	478.4	584.1	673.2	721.4	991.6	 2820	9999.9	9999.9	9999.9	 3977	335.0	195.3	147.4	116.8	97.94	83.84	73.35	65.92	60.10	56.50	52.56	48.65	45.12	41.37	39.02	36.22	34.47	32.32	31.20	28.67	27.06	25.24	23.70	23.21	22.30	21.70	22.09	22.35	22.21	21.30	20.00	18.62	18.69	18.07	17.41	17.20	16.98	16.83	16.50	15.57	15.58	15.05	15.13	14.47	14.88	14.28	14.26	14.27	14.37	14.90	15.97	18.87	21.86	33.57	77.15	214.2	613.9	 1476
310.0	791.6	674.9	505.3	362.6	281.9	270.1	286.0	326.3	392.1	531.3	637.8	734.4	717.3	680.3	998.7	 2907	9999.9	9999.9	9999.9	9999.9	 1398	221.1	167.6	132.5	107.9	91.88	80.69	71.70	66.24	60.97	56.31	50.67	46.50	43.08	39.24	37.26	34.95	32.92	31.03	29.01	27.47	26.00	24.96	23.80	23.30	23.27	22.41	22.56	21.73	20.87	19.49	19.32	18.49	18.29	18.01	17.86	17.78	17.00	16.79	16.82	15.77	15.78	15.79	15.56	15.46	15.18	14.91	14.85	14.46	13.99	14.39	14.24	16.30	25.52	55.79	145.9	363.6
315.0	885.9	786.7	586.1	397.5	307.5	293.2	307.7	355.0	431.6	580.7	680.7	784.5	760.5	662.2	605.6	947.7	 2525	 8005	9999.9	9999.9	9999.9	440.5	249.0	188.3	146.8	117.6	100.4	88.02	78.97	71.99	65.64	58.25	52.33	47.95	43.71	40.39	37.80	35.07	33.31	30.93	29.33	28.53	27.72	25.71	24.91	24.94	23.97	23.50	22.46	21.55	20.74	20.50	19.60	18.89	19.12	18.64	19.10	17.92	18.04	17.19	16.91	16.85	16.98	16.66	16.61	16.04	15.79	15.45	15.01	14.37	13.81	12.99	13.04	14.30	20.88	40.68	89.17
320.0	933.8	849.1	619.0	416.3	322.9	305.2	323.8	371.8	456.6	604.0	709.4	803.9	780.7	673.3	546.3	504.1	818.0	 2112	9999.9	9999.9	9999.9	9999.9	407.1	248.0	191.6	146.5	119.6	101.6	89.85	81.28	73.08	64.88	57.26	51.86	46.44	43.68	40.89	37.11	35.25	33.37	31.10	30.10	29.00	28.04	26.49	25.72	25.66	25.04	23.48	22.04	21.08	21.14	20.35	19.99	19.31	19.35	19.75	18.85	18.52	18.37	17.79	17.46	17.35	17.31	17.33	17.14	16.96	16.07	15.89	14.69	13.93	13.21	12.50	12.10	13.15	17.47	27.92
325.0	999.3	921.9	686.2	455.5	336.4	313.3	330.6	381.3	476.9	616.1	726.1	814.9	799.1	685.7	551.2	415.9	421.4	716.9	 2647	9999.9	9999.9	9999.9	9999.9	373.3	244.8	186.9	144.3	118.6	104.0	92.05	81.11	72.30	63.40	56.39	50.56	46.29	43.13	39.91	38.20	35.85	33.32	31.24	29.75	29.12	28.30	27.08	26.94	25.75	24.52	22.71	21.30	21.77	20.77	20.60	19.83	20.18	20.31	19.33	19.50	18.77	18.76	18.79	18.38	18.16	17.70	17.28	17.06	16.80	16.33	15.38	14.06	13.68	12.72	12.07	11.67	12.37	14.51
330.0	 1038	982.1	723.9	495.0	360.6	327.2	339.6	393.8	482.0	621.9	734.2	827.3	805.1	693.6	550.5	406.6	327.6	370.1	818.8	 2719	9999.9	9999.9	9999.9	9999.9	 1426	271.2	203.1	159.0	129.7	110.8	96.97	84.35	73.44	64.44	57.09	51.52	46.96	43.98	40.84	38.63	35.48	33.80	32.01	31.11	30.24	29.37	28.06	27.41	25.55	23.30	22.01	22.08	21.78	21.33	20.93	21.74	21.08	20.72	19.88	19.91	19.39	19.47	18.99	18.96	18.34	18.20	17.74	17.34	16.94	15.86	14.95	14.18	13.22	12.43	11.94	11.60	11.75
335.0	 1072	991.0	763.5	521.8	376.8	346.4	354.1	403.8	490.1	609.1	731.0	809.6	800.0	693.9	546.6	391.9	306.4	281.3	373.9	821.6	 2499	 6497	9999.9	9999.9	9999.9	 1881	294.1	224.2	175.1	141.4	118.1	100.4	85.43	74.24	64.39	57.47	52.26	48.32	44.31	41.88	38.67	35.89	35.07	32.78	32.46	31.56	30.08	29.10	27.40	24.27	22.75	22.70	22.08	22.79	22.26	22.35	22.23	22.02	21.22	20.55	20.29	20.14	20.02	19.04	19.06	18.83	18.64	17.65	17.77	16.90	15.76	14.89	13.80	13.07	12.00	11.49	11.79
340.0	 1105	 1004	775.8	535.3	392.8	360.9	362.8	406.2	481.7	604.6	703.0	790.4	780.2	680.4	539.2	381.1	291.9	258.9	264.8	373.7	782.2	 1753	9999.9	9999.9	9999.9	9999.9	403.4	284.3	221.5	172.5	138.4	113.8	96.28	83.34	71.36	63.69	56.38	51.86	47.63	43.95	40.02	38.20	36.61	34.49	33.13	32.50	31.27	30.89	28.61	25.36	23.43	23.29	22.16	22.98	22.56	22.56	22.38	22.34	22.07	21.09	20.97	20.88	20.37	20.01	19.40	19.16	18.73	17.86	17.59	17.09	16.17	14.88	14.24	13.43	12.47	11.67	11.59
345.0	 1088	986.3	767.3	545.2	399.7	359.3	374.3	409.6	475.1	588.1	676.3	754.4	757.4	659.7	524.0	370.5	275.6	248.2	240.4	263.2	372.1	626.4	 2599	9999.9	9999.9	9999.9	9999.9	386.1	276.3	215.1	165.2	130.9	109.1	91.09	79.86	68.43	60.82	56.09	50.99	45.51	41.53	39.66	37.58	35.74	34.37	33.51	32.22	31.51	29.12	26.02	24.22	23.83	23.01	22.55	22.52	22.96	22.75	22.65	21.98	21.31	20.92	20.50	20.44	19.81	19.42	19.43	18.68	18.00	17.83	16.46	16.00	14.83	14.45	13.40	12.59	11.96	11.67
350.0	 1051	944.7	744.0	532.9	406.4	370.3	371.5	399.6	448.3	555.3	629.7	699.0	693.6	617.6	499.5	353.1	261.3	227.7	221.8	230.2	258.7	330.5	805.8	 2654	9999.9	9999.9	9999.9	9999.9	 1409	299.4	223.9	170.3	132.3	107.9	91.16	77.64	69.14	61.59	55.38	49.83	45.07	41.89	39.78	37.73	35.94	34.93	33.43	32.74	30.31	26.95	24.47	24.11	23.05	22.81	22.36	22.79	23.26	22.79	22.35	21.85	21.12	21.09	20.70	20.04	19.64	19.42	18.75	18.18	17.81	16.81	15.79	15.14	14.02	13.45	12.56	11.90	11.41
355.0	 1004	906.0	690.9	504.6	408.2	368.4	364.1	387.4	426.5	507.8	576.9	627.8	629.4	559.1	460.8	339.4	253.8	214.3	202.3	211.3	221.5	242.0	362.0	808.4	 2495	 5496	9999.9	9999.9	9999.9	 1953	316.5	231.2	175.6	132.0	107.9	90.75	78.52	69.94	61.29	54.75	49.12	45.07	42.60	39.59	37.58	36.64	34.68	34.09	31.16	27.71	25.91	24.59	23.32	23.18	22.45	22.88	23.04	22.93	23.12	22.55	21.34	21.06	20.76	20.14	20.01	19.11	18.43	18.18	17.74	16.74	15.65	15.25	13.81	13.15	12.54	11.91	11.21
360.0	981.2	858.5	673.8	502.3	393.0	362.6	361.6	375.9	414.5	473.7	532.4	578.4	579.0	522.7	434.8	324.2	246.8	210.3	194.1	198.5	210.0	215.3	250.7	370.4	778.9	 1519	 9520	9999.9	9999.9	9999.9	 1372	294.7	220.0	163.7	123.2	101.9	87.51	76.49	66.92	60.09	53.29	47.96	44.70	41.78	38.55	38.11	35.28	34.82	32.28	28.97	26.74	25.94	24.02	23.62	23.20	22.70	22.88	22.52	23.09	22.29	22.11	21.34	20.66	19.98	19.76	19.16	18.26	18.15	17.06	16.61	15.67	15.02	13.70	12.87	12.28	11.90	11.44
365.0	930.5	836.5	658.5	489.8	385.8	363.2	351.9	367.0	396.0	454.1	497.8	541.4	543.7	489.5	412.0	312.1	244.4	207.8	192.0	189.5	202.6	210.2	217.3	256.9	367.3	571.7	 2465	9999.9	9999.9	9999.9	9999.9	374.4	268.7	202.5	149.4	117.4	97.49	84.26	73.85	65.70	57.45	51.44	47.45	43.57	39.80	38.69	36.70	35.52	33.24	29.93	27.53	27.15	24.63	23.88	23.72	23.28	23.09	22.56	23.02	22.47	21.71	21.51	20.66	20.36	19.46	18.77	18.34	17.84	16.94	16.26	15.47	14.57	13.96	13.05	12.19	12.32	11.66
370.0	935.9	777.7	626.1	474.9	384.4	352.8	343.0	351.6	374.3	418.7	457.3	493.1	489.5	444.7	380.2	296.9	241.1	209.8	193.8	188.5	191.6	202.3	206.8	217.8	251.8	317.0	773.4	 2612	9999.9	9999.9	9999.9	9999.9	 1261	277.4	202.0	152.5	119.2	98.88	84.09	73.50	64.17	57.28	51.85	47.43	43.34	40.97	38.38	37.00	34.54	30.42	28.24	27.85	26.09	25.34	23.94	23.31	23.43	22.86	22.59	22.62	21.86	21.41	20.74	20.63	19.83	19.27	18.39	17.66	16.99	16.27	15.17	14.52	13.82	12.98	12.46	12.12	12.13
375.0	913.1	762.0	588.1	462.7	376.8	344.3	331.2	332.4	343.0	390.3	416.3	441.0	442.7	400.3	350.0	277.7	236.7	214.2	198.8	191.4	188.4	190.8	199.3	206.7	212.3	236.5	353.8	796.8	 2498	 5403	9999.9	9999.9	9999.9	 1672	282.6	204.4	158.8	122.4	98.46	84.89	72.23	64.50	57.40	52.88	47.19	44.76	40.71	38.44	35.78	31.90	29.13	29.14	27.40	26.47	24.99	24.46	23.58	23.22	22.93	22.67	22.32	21.95	21.03	20.12	20.30	19.41	18.67	17.55	17.56	16.70	15.52	14.26	13.85	13.23	12.66	12.43	12.20
380.0	924.6	754.3	578.0	456.0	374.4	346.8	319.9	322.4	323.6	371.5	389.1	409.5	409.6	374.3	328.5	267.5	233.8	216.2	200.1	194.8	188.8	186.2	191.7	202.5	199.3	207.8	246.3	364.0	783.0	 1507	 9385	9999.9	9999.9	9999.9	 1123	258.6	193.7	149.8	114.1	94.77	80.92	70.13	62.65	56.05	51.53	47.69	42.81	41.19	37.50	32.81	30.09	29.63	28.14	27.30	26.07	24.88	24.32	23.55	22.93	23.43	22.07	21.81	21.29	20.50	20.19	19.70	19.13	18.42	17.37	16.98	15.67	14.60	13.95	13.03	13.13	12.33	12.17
385.0	872.0	719.5	582.9	451.8	378.8	341.0	320.2	310.0	314.5	348.4	368.2	388.8	378.9	354.7	313.4	262.0	231.7	215.2	203.5	194.3	189.2	186.3	185.0	193.0	194.3	192.9	208.3	249.0	369.5	572.9	 2442	9999.9	9999.9	9999.9	9999.9	549.4	235.2	181.4	138.7	108.2	88.84	76.95	67.14	60.66	54.92	50.08	45.14	42.66	38.45	33.58	31.10	30.66	28.67	27.72	26.76	26.59	25.34	24.02	23.56	23.10	22.12	21.59	21.26	20.87	20.03	20.00	18.90	18.19	17.52	16.84	15.85	14.77	14.26	13.57	12.92	12.12	12.42
390.0	854.3	700.4	563.0	450.9	372.2	339.9	317.4	298.7	299.1	319.7	334.1	352.2	350.4	330.5	295.7	251.6	229.3	212.1	200.8	197.4	191.3	184.2	182.7	181.5	185.3	186.9	184.9	200.1	247.9	319.1	769.3	 2614	9999.9	9999.9	9999.9	 9175	 1051	242.6	182.4	141.8	109.0	89.30	76.61	66.91	61.13	55.33	49.23	46.67	41.66	35.82	32.38	31.83	29.85	29.01	27.68	27.54	26.89	25.21	24.42	23.32	22.55	21.49	21.19	20.87	20.31	20.03	19.18	18.71	18.07	17.02	15.70	14.73	14.16	13.83	13.13	12.64	12.31
395.0	852.2	691.8	542.3	419.3	374.5	338.9	311.1	298.4	284.3	296.9	305.9	320.7	321.9	306.9	277.4	246.9	223.7	211.7	198.9	196.3	192.1	186.4	180.7	174.8	174.0	177.5	179.4	178.5	199.8	232.5	354.4	791.3	 2481	 5087	9999.9	9999.9	9999.9	 1387	252.3	186.4	144.3	112.2	90.50	77.03	68.11	62.00	54.36	50.94	44.69	38.83	34.84	33.47	31.59	30.29	28.89	28.82	28.03	27.25	25.96	24.14	22.77	21.37	21.03	20.37	20.83	20.04	19.64	18.98	18.21	17.08	16.00	15.06	14.00	13.92	13.78	13.01	12.65
400.0	815.2	645.6	510.4	407.2	353.8	334.8	301.0	285.1	275.6	280.7	284.3	300.1	294.4	281.8	265.0	235.7	217.7	206.2	198.5	192.5	190.8	184.0	177.0	170.9	165.3	166.6	172.8	171.1	177.6	196.6	241.2	357.2	760.2	 1403	 8610	9999.9	9999.9	9999.9	940.3	230.5	172.1	135.9	105.0	85.88	74.19	66.80	58.20	54.13	47.16	40.72	36.20	34.74	31.89	31.02	29.53	29.44	28.85	27.91	26.60	25.11	23.04	21.55	21.02	20.65	20.51	19.75	20.12	18.86	17.87	17.03	15.96	15.20	14.11	13.99	13.16	13.28	12.78
405.0	786.0	626.1	479.5	380.8	340.0	320.7	290.3	278.2	263.3	269.9	264.2	278.3	271.9	264.5	248.5	224.5	211.3	199.4	192.4	188.3	184.2	179.8	172.5	169.0	159.1	157.4	161.4	168.9	167.0	175.1	196.3	237.8	347.8	515.4	 2217	9999.9	9999.9	9999.9	9999.9	492.2	203.2	159.3	125.7	96.95	81.04	71.58	61.31	56.03	49.45	42.32	37.43	36.17	33.54	31.76	29.86	29.46	28.72	27.99	27.12	25.85	23.60	21.93	20.93	20.39	20.14	19.25	19.27	19.01	17.67	16.88	15.94	14.76	13.68	13.55	12.81	12.73	12.79
410.0	740.0	588.1	452.3	367.1	312.6	291.5	277.4	264.5	246.1	250.2	249.5	252.3	250.2	241.1	226.4	211.0	200.1	191.5	186.5	181.4	177.6	173.8	168.6	163.2	155.8	151.2	149.5	155.1	161.6	162.4	168.0	185.9	224.9	277.5	679.2	 2545	 9598	9999.9	9999.9	 8549	930.9	212.0	159.2	124.5	97.18	80.50	67.82	61.02	53.03	45.23	40.02	38.42	34.99	32.83	30.98	29.87	29.47	28.24	27.23	25.97	24.15	22.64	21.15	20.34	19.70	19.02	18.42	18.75	17.87	17.00	16.05	15.08	13.84	13.36	12.58	12.81	12.69
415.0	714.3	545.0	428.3	350.0	306.3	273.5	259.0	245.4	237.3	233.4	233.5	228.1	224.7	222.0	207.3	195.1	188.0	181.6	176.6	171.8	168.5	165.6	160.6	155.3	150.5	146.5	142.3	141.1	150.7	156.4	152.7	156.4	171.7	195.7	299.4	733.9	 2341	 5204	9999.9	9999.9	9999.9	 1229	214.3	158.1	125.8	99.08	76.92	68.61	57.98	48.43	43.53	40.98	36.08	34.43	32.39	31.11	30.40	28.59	27.96	26.26	24.84	23.09	21.63	20.45	19.33	18.66	17.92	17.99	17.63	16.69	15.91	15.22	14.28	13.14	13.04	12.83	12.09
420.0	685.1	525.2	417.1	338.8	292.9	263.7	242.9	234.8	228.9	229.0	221.9	219.6	210.3	204.6	194.3	184.6	175.2	175.0	169.8	163.5	163.9	157.0	152.8	150.0	146.9	141.5	137.8	133.6	139.3	148.4	147.7	143.3	149.9	160.9	195.7	308.4	686.6	 1385	 8413	9999.9	9999.9	9999.9	826.6	195.9	150.3	119.7	91.40	75.19	63.40	52.39	45.76	43.56	38.51	36.74	33.98	31.79	31.48	29.81	28.36	27.25	25.04	24.41	22.94	21.32	19.88	18.73	18.33	17.77	16.87	17.01	16.21	15.24	14.16	13.64	12.88	12.26	12.09
425.0	632.1	503.6	395.4	327.7	287.0	258.7	231.6	221.0	215.1	218.8	214.4	212.9	199.8	191.8	183.6	175.1	169.1	166.6	161.4	159.6	156.8	152.7	150.0	146.0	141.0	137.6	133.7	130.1	131.4	137.4	143.5	136.4	137.0	140.7	156.9	194.5	295.3	475.4	 2137	9999.9	9999.9	9999.9	9999.9	261.0	177.5	141.0	109.0	86.79	68.79	56.37	48.37	45.73	40.89	38.39	36.15	33.69	32.72	31.05	28.71	27.55	25.66	24.29	23.43	21.94	20.38	18.84	18.37	17.64	16.53	16.31	15.65	15.08	14.12	13.27	12.95	12.16	12.32
430.0	698.7	491.2	380.7	320.8	273.0	248.1	226.0	212.6	205.0	203.7	200.9	198.3	188.0	179.7	173.6	162.6	158.1	155.4	151.8	150.4	149.6	144.6	141.4	140.0	134.4	132.4	129.2	126.6	125.3	127.4	132.4	132.5	127.6	125.9	130.4	147.3	183.3	239.8	628.4	 2522	 9315	9999.9	9999.9	 8021	831.3	188.9	136.8	110.7	84.04	64.13	54.05	49.90	44.14	41.91	39.02	36.77	34.76	32.47	30.52	28.19	26.52	24.82	23.78	22.61	21.56	19.78	18.48	17.73	16.74	16.00	14.99	14.58	13.89	13.24	12.78	12.28	11.93
435.0	 1423	479.1	369.8	307.2	270.8	246.1	222.4	209.8	199.5	193.2	190.4	188.6	181.2	172.5	162.0	154.0	148.8	144.9	142.7	141.4	141.2	136.6	137.0	134.0	128.9	127.8	126.0	123.6	122.1	122.4	122.1	124.0	124.7	116.9	115.8	123.9	136.7	164.5	263.4	699.7	 2251	 5183	9999.9	9999.9	9999.9	 1053	191.6	143.1	110.5	81.76	64.12	57.18	49.36	45.57	43.04	40.09	38.36	35.24	32.71	30.70	27.94	25.76	24.25	23.00	22.24	21.02	19.36	17.91	16.79	15.65	15.02	14.82	13.45	13.45	12.99	12.70	12.22
440.0	 3193	538.4	366.8	307.7	269.7	242.0	217.8	207.3	189.9	189.2	185.0	182.4	176.6	167.3	158.1	148.2	142.0	140.8	138.2	135.0	136.7	135.4	132.0	130.2	127.7	125.2	122.6	122.4	121.5	121.4	117.4	116.8	121.1	115.1	110.4	112.5	119.3	133.7	169.3	280.5	645.1	 1362	 8833	9999.9	9999.9	9999.9	598.7	179.2	132.1	100.5	76.78	64.20	54.53	49.89	45.82	43.12	40.92	37.51	34.41	32.15	29.16	26.91	25.12	23.73	22.87	21.60	20.48	18.50	17.21	16.29	15.50	14.47	13.82	12.94	12.81	12.78	12.34
445.0	 5754	963.7	352.8	298.2	259.1	237.5	213.0	204.1	188.1	187.8	179.6	177.4	167.9	163.8	154.0	142.9	137.9	135.1	132.7	130.6	130.9	129.2	129.2	126.1	124.9	122.1	119.6	119.7	119.5	118.5	114.2	112.1	113.1	112.9	107.3	106.6	109.8	117.5	134.7	173.2	270.1	454.7	 2236	9999.9	9999.9	9999.9	9999.9	232.8	157.9	117.8	92.50	75.27	59.59	54.22	47.68	45.10	43.26	39.77	36.14	33.76	30.28	27.43	26.40	24.77	22.50	21.73	20.66	19.52	17.85	16.73	15.55	14.65	13.93	13.53	12.99	13.00	12.36
450.0	 6863	 4287	511.5	295.5	256.0	233.0	214.1	200.4	185.9	183.6	175.3	171.7	163.7	158.5	148.8	139.0	132.3	129.9	126.3	125.8	124.2	123.2	122.0	122.0	121.2	118.8	117.1	116.2	117.0	117.3	113.6	111.1	106.0	108.1	107.2	104.9	104.1	107.7	116.1	131.9	167.8	226.3	646.4	 2576	 9349	9999.9	9999.9	 7091	695.7	158.9	117.7	98.23	76.23	63.75	55.54	50.77	47.67	43.29	39.74	36.45	32.85	29.96	27.92	26.16	24.35	23.12	21.67	20.82	19.16	17.89	16.35	15.35	14.76	13.99	13.36	13.45	13.16
455.0	 3847	 9285	 2151	288.5	246.1	219.3	204.6	189.3	175.7	179.6	168.4	161.7	155.7	148.3	139.5	132.0	128.2	123.4	120.4	116.0	117.3	116.0	115.3	115.1	114.9	114.3	113.2	112.0	112.4	113.4	111.7	108.0	103.7	98.78	100.5	100.8	100.3	100.3	104.7	111.0	124.8	152.4	262.3	708.0	 2259	 6265	9999.9	9999.9	9999.9	841.7	162.4	122.2	96.84	79.82	64.32	56.23	52.41	46.33	42.23	38.87	35.10	31.78	29.57	27.29	25.31	24.13	22.11	21.03	20.07	18.84	17.19	15.85	15.20	14.53	13.58	13.26	13.43
460.0	 1656	9999.9	 5602	420.3	250.8	220.5	201.1	189.6	170.3	170.6	162.7	154.3	146.4	140.2	134.1	126.4	121.4	119.0	115.0	110.3	110.7	110.4	108.9	108.4	108.7	110.9	109.5	109.3	108.1	108.9	108.8	105.8	101.4	96.50	94.56	97.87	98.84	96.40	98.32	101.6	109.3	122.5	162.9	276.0	641.3	 1603	 8077	9999.9	9999.9	9999.9	577.2	156.6	114.8	95.83	76.65	62.77	56.14	50.29	45.12	40.99	36.92	33.63	31.11	27.97	26.39	24.42	23.04	21.71	20.23	19.38	17.82	16.89	14.70	14.38	14.11	13.75	13.45
465.0	864.0	 7021	9999.9	 1355	244.6	223.0	203.8	185.9	170.3	165.8	155.2	151.9	145.8	137.2	129.2	121.3	117.8	111.8	110.7	107.4	106.0	104.8	104.6	103.9	103.4	104.2	103.9	103.9	106.4	106.4	105.9	102.6	101.0	96.08	91.30	92.14	95.80	94.35	94.65	97.48	102.2	110.3	129.3	171.2	265.9	504.4	 2046	9999.9	9999.9	9999.9	 9220	214.8	142.1	113.4	93.59	76.00	63.44	55.36	48.52	43.57	39.01	35.83	32.67	29.81	27.51	25.78	24.13	22.38	20.82	19.84	18.49	17.14	15.43	14.59	14.25	13.98	13.68
470.0	657.8	 2633	9999.9	 6749	383.5	221.3	196.7	181.3	169.4	161.6	153.2	147.3	137.4	129.8	122.1	115.0	110.1	106.4	103.6	101.5	99.80	98.30	96.84	97.60	96.71	96.65	97.50	96.98	99.79	100.3	99.64	97.70	96.12	91.62	87.10	85.81	87.91	89.99	88.99	90.89	93.40	98.99	108.1	127.8	163.0	231.4	589.5	 2544	 8306	9999.9	9999.9	 6658	706.8	159.7	117.0	97.46	79.40	64.75	55.19	47.89	42.02	38.33	35.18	32.32	29.70	26.89	25.25	23.45	21.49	20.17	18.65	17.97	16.51	15.20	14.40	13.86	13.43
475.0	525.6	894.7	 5253	9999.9	 2747	204.5	181.4	165.3	151.2	149.4	140.0	134.2	124.9	116.5	110.5	105.0	99.08	96.46	92.60	93.52	89.52	89.34	87.54	87.68	88.14	87.56	87.79	86.73	88.84	90.36	90.69	88.82	85.85	82.05	80.21	77.62	77.54	78.53	79.16	79.47	80.59	84.69	89.66	97.31	110.8	140.1	228.3	676.6	 1993	 4892	9999.9	9999.9	9999.9	926.4	153.5	113.4	93.88	76.82	60.08	50.10	43.47	38.98	35.07	32.12	29.90	27.04	25.17	22.57	20.91	19.84	18.05	16.40	15.99	14.48	13.46	12.49	12.43
480.0	478.8	481.7	 1832	9999.9	 7861	336.8	170.2	157.1	146.6	143.9	133.2	126.0	115.9	109.2	103.4	98.16	93.20	90.78	86.46	87.48	85.02	83.83	83.24	81.90	81.14	82.23	81.42	80.56	82.40	84.39	85.13	83.13	80.17	77.91	74.46	73.34	72.09	71.64	72.15	73.51	72.50	76.04	79.19	82.91	89.06	104.0	134.9	243.5	548.5	 1236	 6562	9999.9	9999.9	9999.9	222.7	143.6	108.2	88.67	70.72	55.44	45.67	40.51	36.31	33.05	30.78	27.67	25.59	23.12	21.13	19.71	17.92	16.35	15.44	14.48	13.69	12.42	11.88
485.0	470.3	395.1	641.6	 7463	9999.9	 1745	173.2	155.3	140.1	136.7	129.1	120.5	112.0	105.1	100.3	93.40	89.02	88.69	84.81	82.16	81.73	80.89	79.73	79.62	79.02	77.94	77.52	76.96	77.32	80.32	80.56	78.32	76.55	75.15	71.38	69.98	69.00	68.06	67.28	68.96	69.18	69.81	72.21	74.96	79.13	86.05	100.5	138.0	212.0	376.9	 1629	 9590	9999.9	9999.9	9999.9	216.6	133.7	102.3	82.78	66.32	51.43	44.38	39.23	35.32	32.25	28.80	27.41	24.72	22.43	20.47	18.38	17.11	15.85	14.87	13.96	13.65	12.07
490.0	434.3	351.6	343.6	 2500	9999.9	 8370	283.0	147.9	135.9	131.5	122.8	115.0	105.7	100.0	93.36	87.18	84.31	82.57	80.61	77.80	76.61	76.02	74.33	75.52	73.52	73.25	73.23	72.41	73.25	74.07	74.16	72.95	71.83	70.00	66.71	64.77	65.02	63.38	62.39	63.77	64.14	64.28	65.55	67.58	69.97	74.28	79.22	95.41	121.2	163.1	453.3	 2323	 7630	9999.9	9999.9	 7136	788.0	144.9	102.7	81.84	65.25	52.24	43.32	38.56	34.63	30.88	28.49	25.97	24.03	21.79	19.59	17.34	16.52	15.52	14.29	13.68	12.82
495.0	408.3	313.4	271.3	720.0	 5076	9999.9	 2418	149.5	129.7	124.7	116.6	108.7	102.0	94.62	86.46	81.40	77.68	75.76	74.95	73.70	72.72	71.03	70.63	70.64	69.11	69.27	67.62	68.33	68.14	69.07	68.36	67.06	66.13	65.09	62.14	60.47	60.21	59.95	59.88	59.36	59.63	59.96	60.63	61.77	64.38	66.36	68.52	75.42	84.68	102.6	173.2	603.0	 1818	 4311	9999.9	9999.9	9999.9	243.6	146.1	100.9	80.35	65.17	51.55	42.11	37.43	33.49	29.53	27.34	24.86	22.87	20.16	18.73	16.93	15.77	14.90	13.68	13.36
500.0	388.2	289.9	240.9	313.3	 1639	9999.9	 9299	268.2	123.2	118.8	108.8	103.5	96.27	89.55	80.35	76.99	73.72	71.17	71.00	68.43	68.32	66.49	66.74	66.87	65.01	64.98	64.16	64.57	63.66	64.67	64.67	62.31	60.83	60.10	59.03	58.04	57.13	56.62	57.25	56.10	55.89	57.54	57.53	57.11	59.66	61.20	62.07	66.13	69.68	76.73	102.6	208.1	491.2	 1096	 6664	9999.9	9999.9	9999.9	235.2	128.1	90.71	73.16	59.85	46.48	38.74	34.59	30.50	27.67	25.44	23.16	20.38	18.86	17.26	15.86	14.96	14.10	13.14
505.0	357.0	278.0	217.2	215.3	505.0	 7226	9999.9	 1736	121.4	114.6	104.9	100.2	92.47	84.80	76.77	73.06	68.58	67.99	66.59	64.84	64.41	64.04	63.64	63.16	62.48	61.40	61.36	61.56	61.34	61.75	60.98	59.38	56.91	56.41	56.13	55.86	54.48	54.19	54.48	53.60	53.13	53.56	55.10	55.06	56.10	57.73	58.68	60.75	63.19	64.47	75.73	113.1	182.5	335.4	 1645	 9421	9999.9	9999.9	9999.9	211.3	110.2	82.85	66.90	54.58	42.95	36.02	32.26	28.38	26.00	23.40	20.96	19.06	17.44	15.95	14.56	13.98	13.50
510.0	334.4	254.0	199.3	178.7	229.6	 2302	9999.9	 9960	569.7	109.6	100.3	94.19	85.89	78.01	72.31	67.68	63.00	61.48	60.82	60.55	60.22	59.86	59.53	59.20	58.78	58.21	57.50	57.92	58.24	57.44	57.20	55.70	53.98	51.79	50.31	50.97	50.98	50.86	51.06	50.32	50.28	50.07	51.55	51.68	51.69	52.75	53.14	55.10	56.62	55.73	59.72	76.34	101.2	144.7	451.1	 2261	 7656	9999.9	9999.9	 7724	836.0	117.1	80.59	64.28	52.49	41.65	34.98	29.86	26.37	23.60	21.38	19.01	17.42	16.13	14.37	13.73	13.15
515.0	305.3	237.5	179.7	152.7	149.2	613.9	 4806	9999.9	 4323	120.6	98.29	89.40	82.52	73.49	67.31	62.61	59.81	55.86	54.84	54.21	55.86	55.41	55.38	55.81	54.87	55.13	54.78	54.08	54.85	54.10	53.60	51.73	49.89	48.52	47.06	45.99	46.84	46.75	47.10	47.35	47.40	47.12	46.87	48.17	48.24	48.41	47.72	50.11	49.83	49.55	51.59	58.27	67.94	89.71	165.1	577.9	 1808	 3410	9999.9	9999.9	9999.9	241.3	115.6	78.52	61.23	50.63	41.31	32.83	28.05	24.10	21.52	19.12	17.56	15.93	14.68	13.91	12.76
520.0	291.6	211.7	165.4	146.3	134.6	226.8	 1463	9999.9	9999.9	213.8	95.98	84.97	76.58	70.32	64.10	59.72	56.04	52.26	51.94	52.97	52.62	52.97	53.11	52.96	53.07	52.93	53.39	52.55	51.89	51.22	51.57	49.26	47.13	45.51	44.06	42.68	43.40	43.29	44.89	44.46	45.15	44.64	44.95	45.74	46.02	45.59	44.26	45.16	46.26	46.03	47.44	50.61	55.13	67.20	94.97	193.5	479.9	873.0	 5126	9999.9	9999.9	9999.9	223.6	99.45	70.37	57.26	46.37	37.48	29.94	25.70	22.55	19.01	17.13	16.21	14.74	13.48	12.58
525.0	271.1	206.2	156.3	137.1	122.2	137.6	421.5	 7200	9999.9	 1525	99.40	83.77	74.85	67.89	62.14	56.82	54.06	51.32	49.67	50.59	49.35	49.94	50.43	50.93	50.97	50.55	51.08	49.65	50.21	49.95	49.11	48.12	45.62	42.96	42.10	40.82	39.79	40.66	41.41	42.21	42.44	41.16	41.85	42.80	43.47	43.56	41.84	42.74	42.90	42.30	43.68	46.57	48.95	54.96	69.73	101.5	172.0	272.5	 1267	 8278	9999.9	9999.9	9999.9	190.2	87.65	64.02	51.89	42.07	33.32	27.05	23.80	20.20	17.96	15.92	14.95	13.76	13.02
530.0	258.5	192.4	143.3	123.7	111.3	109.0	173.1	 2182	9999.9	9999.9	628.2	86.31	75.80	66.61	60.38	55.50	51.60	49.27	46.74	47.28	46.59	46.72	47.87	48.30	47.85	47.83	47.59	47.72	48.20	47.60	46.56	45.38	43.11	40.21	39.26	37.53	37.24	37.04	37.25	38.43	38.39	38.45	39.13	39.14	39.47	40.98	39.72	39.60	38.71	38.44	39.51	41.67	43.64	47.46	53.40	67.03	92.55	120.5	351.3	 1963	 6927	9999.9	9999.9	 8017	838.9	93.08	62.35	49.32	39.86	31.72	25.28	21.05	18.58	16.24	14.96	13.88	13.10
535.0	234.9	182.4	136.8	113.3	99.18	96.54	110.9	559.7	 4609	9999.9	 6029	111.7	74.54	65.40	57.40	52.48	49.97	47.06	44.73	44.79	43.02	43.09	43.84	43.23	44.47	44.87	44.48	45.06	45.79	44.85	43.95	42.85	41.10	38.60	36.84	34.80	34.72	33.84	33.78	34.03	34.50	35.18	36.46	36.07	36.01	37.18	37.20	37.39	35.60	34.66	35.40	37.33	38.80	41.56	44.58	50.10	61.24	76.30	131.4	495.8	 1620	 2961	9999.9	9999.9	9999.9	241.1	94.68	60.15	47.37	38.19	29.92	23.81	19.55	17.00	15.67	13.95	13.10
540.0	225.5	174.4	138.2	110.3	96.01	92.28	90.61	193.0	 1333	9999.9	9999.9	637.9	74.69	64.17	57.07	50.54	48.09	46.27	43.73	42.76	42.45	40.80	41.29	40.93	41.65	42.83	41.78	42.49	43.31	43.18	42.53	40.73	39.13	37.68	35.81	33.65	32.61	32.53	31.60	31.19	31.49	32.87	34.20	33.88	34.45	34.55	34.99	35.30	33.54	32.61	33.03	34.24	35.21	38.45	40.58	44.25	48.26	57.60	76.83	162.3	419.5	744.1	 3945	9999.9	9999.9	9999.9	219.0	79.83	53.76	42.01	33.56	27.11	20.68	17.79	15.78	14.29	13.27
545.0	226.9	177.3	129.7	104.5	90.70	89.20	86.43	106.8	368.7	 7261	9999.9	 3635	78.69	63.48	55.73	49.42	46.37	44.69	42.73	41.51	40.37	39.60	39.63	39.67	39.74	40.30	40.31	41.26	41.75	41.62	40.97	39.27	38.14	35.83	34.34	32.68	31.10	30.54	30.23	29.33	29.10	29.49	31.90	31.72	32.73	32.91	32.73	33.99	32.95	31.31	30.94	31.49	33.30	35.56	37.45	40.48	42.51	47.40	57.22	82.26	143.1	224.3	972.5	 6965	9999.9	9999.9	9999.9	177.5	67.19	48.29	37.30	30.15	23.72	19.10	16.05	14.43	13.65
550.0	224.2	169.1	122.5	97.52	87.69	80.68	79.23	82.49	141.9	 2148	9999.9	9999.9	554.3	65.15	55.34	48.03	43.59	42.52	41.13	39.10	38.93	37.56	37.75	37.07	36.69	36.71	37.10	37.93	38.72	39.31	38.55	37.52	36.20	34.24	32.54	31.26	29.67	28.75	28.11	27.37	26.93	27.10	28.28	29.08	30.35	30.81	30.30	30.44	31.04	29.87	28.45	29.39	30.11	31.67	33.46	35.87	38.08	40.13	44.08	53.46	73.15	94.79	269.6	 1640	 6342	9999.9	9999.9	 8291	835.2	71.25	44.91	34.26	27.38	22.01	18.26	15.47	13.88
555.0	216.5	163.6	116.8	88.32	77.78	72.30	71.11	68.99	83.71	535.8	 4243	9999.9	 6760	96.35	54.66	48.06	41.80	39.19	37.92	36.63	35.59	35.76	35.18	35.14	34.82	34.39	33.51	34.98	35.68	36.21	35.76	35.95	33.68	32.16	30.94	29.70	28.58	27.31	26.46	25.70	25.00	24.96	25.28	25.48	27.06	28.40	28.31	28.20	27.91	27.54	27.44	27.67	27.14	28.32	29.15	31.67	33.76	35.42	36.67	39.82	46.83	58.83	101.1	410.1	 1473	 2705	9999.9	9999.9	9999.9	241.2	68.31	41.59	31.46	25.27	20.99	17.04	14.52
560.0	198.1	148.1	106.2	85.09	72.76	67.78	63.61	63.64	68.69	173.9	 1163	9999.9	9999.9	645.7	55.17	45.77	40.29	37.47	35.12	35.43	34.29	33.90	33.43	34.02	33.64	32.67	31.61	32.49	33.10	33.83	33.79	33.82	31.98	31.15	30.31	28.64	27.15	26.83	25.38	24.34	23.52	23.40	23.02	23.63	24.19	25.89	26.29	26.20	26.15	25.80	25.60	26.32	25.81	26.49	26.72	29.67	30.80	32.60	33.61	34.68	36.76	43.27	58.89	129.8	371.9	668.0	 3332	9999.9	9999.9	9999.9	201.9	55.31	34.71	27.72	22.69	18.34	15.67
565.0	177.4	134.9	101.0	83.53	68.16	61.84	56.32	57.05	59.12	89.12	316.9	 6530	9999.9	 4411	64.95	46.62	40.33	35.95	33.98	34.12	33.29	33.04	31.77	32.00	32.32	32.00	30.11	31.23	30.89	32.08	32.25	32.20	30.75	29.85	28.23	27.30	26.78	25.89	24.69	23.32	22.63	21.99	21.44	22.08	22.19	23.04	24.64	24.76	24.56	23.71	24.20	24.62	24.41	24.66	25.61	27.02	28.67	30.04	31.20	31.12	32.08	34.57	42.54	63.12	120.2	193.6	811.3	 5215	9999.9	9999.9	9999.9	145.4	43.33	30.50	24.21	19.66	16.48
570.0	168.5	122.1	92.34	74.54	58.51	55.56	52.06	54.36	54.46	63.72	118.1	 1827	9999.9	9999.9	 1248	49.08	40.19	35.32	32.60	31.87	31.57	31.14	30.77	30.52	30.95	29.92	29.04	28.87	28.14	28.69	29.18	29.25	28.85	27.86	26.80	26.00	25.72	24.70	24.01	22.34	21.35	21.07	20.29	20.17	20.49	20.93	21.51	22.66	22.68	21.99	22.11	22.71	22.59	22.97	23.59	24.67	25.86	26.60	27.18	27.73	28.36	29.34	32.58	40.14	57.53	76.30	219.2	 1224	 5488	9999.9	9999.9	 8629	167.5	43.91	27.90	21.59	18.12
575.0	148.0	110.1	84.50	62.47	53.32	51.23	48.54	46.28	50.09	54.37	71.56	460.1	 3907	9999.9	 6190	80.02	41.27	35.87	32.70	30.33	29.95	29.11	29.02	28.89	28.84	27.93	27.51	27.33	26.49	26.78	26.25	26.01	26.60	25.87	25.05	25.00	24.46	23.40	22.86	21.21	20.69	19.57	19.03	18.50	19.07	19.50	19.25	19.35	20.08	20.29	20.00	20.34	20.62	21.49	21.55	22.43	23.24	23.97	24.22	24.43	24.96	25.61	26.56	29.22	35.78	44.17	77.74	304.5	 1264	 2534	9999.9	9999.9	9999.9	223.3	37.08	25.27	19.48
580.0	137.3	110.5	79.85	62.89	51.96	46.82	43.88	43.73	47.82	51.93	58.66	149.3	 1031	9999.9	9999.9	597.6	44.96	36.56	32.99	29.73	28.50	27.70	28.27	28.14	27.54	27.15	26.63	26.43	25.91	25.58	25.08	24.91	24.67	24.33	23.75	23.50	23.54	22.07	21.83	20.85	20.05	18.87	18.39	18.12	18.01	18.44	18.43	18.08	18.25	18.59	18.77	18.82	19.38	20.39	20.60	21.10	21.79	22.16	21.99	22.62	22.57	23.21	23.87	25.39	27.07	31.92	43.21	95.30	312.5	607.9	 2915	9999.9	9999.9	9999.9	171.0	32.47	21.83
585.0	131.3	102.5	74.22	59.76	51.22	44.88	41.04	39.69	45.18	48.49	52.97	79.23	283.7	 5847	9999.9	 4539	57.09	38.32	32.73	29.39	27.53	26.76	26.81	27.10	26.56	25.87	26.19	26.25	25.56	25.74	24.41	24.03	23.42	23.22	23.03	22.50	22.48	22.21	21.37	20.71	19.45	18.51	18.42	17.95	17.74	17.72	17.76	17.38	17.20	17.56	17.58	17.85	17.97	18.96	19.55	19.85	20.69	20.97	20.31	20.90	21.01	21.55	21.59	22.72	23.70	25.56	31.34	45.89	95.11	165.6	694.3	 4086	9999.9	9999.9	 2034	104.8	25.86
590.0	121.0	97.20	69.84	54.08	46.19	41.75	38.68	38.99	41.77	47.67	53.28	62.72	109.4	 1564	9999.9	9999.9	 1524	42.70	34.45	30.24	27.74	26.38	25.26	25.98	25.93	25.30	25.02	25.30	24.73	25.07	24.30	23.44	22.19	21.37	21.53	21.50	21.27	21.01	20.46	20.07	19.03	18.25	17.96	17.32	17.18	17.02	16.71	16.55	16.15	15.62	15.74	16.33	16.91	17.69	18.03	18.64	19.04	19.40	19.21	19.14	18.96	19.14	19.87	20.47	21.22	21.61	23.67	29.30	42.39	59.26	179.7	949.3	 4380	9999.9	9999.9	 9065	146.8
595.0	109.8	90.43	66.01	50.00	42.77	37.55	36.17	37.91	38.36	45.31	53.25	58.45	69.29	390.9	 3257	9999.9	 9587	70.65	37.19	31.73	29.46	26.81	25.36	24.44	24.90	24.05	23.91	23.82	24.22	24.10	24.09	23.18	21.82	20.47	19.74	20.09	20.09	19.96	19.87	19.23	18.45	18.16	17.87	16.75	16.64	17.06	16.19	15.75	15.17	14.66	14.42	14.44	15.09	15.94	16.59	17.19	17.46	18.06	17.49	17.65	17.21	17.33	17.86	18.17	19.13	19.07	19.59	21.38	26.21	31.74	58.84	231.0	 1001	 2410	9999.9	9999.9	9999.9
600.0	110.1	85.09	63.48	44.27	39.20	37.74	34.97	34.78	38.40	45.47	53.88	56.84	56.88	128.4	814.5	9999.9	9999.9	528.1	41.81	32.92	30.11	26.59	25.48	24.43	23.82	23.09	22.57	23.38	24.02	24.14	23.11	22.69	21.57	20.52	19.58	18.89	18.78	19.24	19.13	18.45	18.15	17.43	17.38	16.69	16.86	16.63	16.16	15.40	14.68	13.95	13.79	13.42	13.87	15.03	15.80	16.28	16.17	16.82	16.43	16.84	16.39	16.33	16.46	16.61	17.31	17.66	17.60	18.43	19.76	22.74	29.71	68.55	241.6	564.2	 2654	9999.9	9999.9
605.0	104.2	85.43	61.84	48.53	37.84	37.25	34.74	35.55	36.97	44.52	52.38	55.64	52.69	66.91	222.7	 4550	9999.9	 4112	56.19	34.82	30.40	27.32	25.95	24.29	22.72	23.27	22.61	22.71	23.08	23.20	22.97	22.30	21.44	20.41	19.65	18.59	18.03	18.74	18.29	17.91	17.24	17.27	16.59	16.99	16.93	16.48	16.05	15.28	14.52	13.86	13.33	12.93	12.80	13.56	14.45	16.00	15.76	15.80	15.87	15.89	15.58	16.01	15.66	15.33	16.05	16.74	16.40	17.02	16.90	18.01	21.13	30.71	69.50	144.2	619.5	 3424	9999.9
610.0	106.9	81.50	60.26	46.97	35.71	34.48	32.99	33.93	36.01	42.66	49.68	54.31	50.67	51.11	85.02	 1154	9999.9	9999.9	 1653	41.35	31.57	28.47	26.47	24.36	23.67	22.55	22.18	22.05	21.98	22.30	22.33	22.07	21.79	20.49	19.80	18.53	17.80	17.44	17.27	17.44	16.99	16.87	16.45	16.61	17.04	16.73	16.26	15.83	14.47	13.39	12.98	12.44	12.35	12.48	13.13	14.44	14.91	15.15	14.96	14.97	14.80	14.81	14.75	14.61	14.42	15.06	14.98	15.42	15.08	15.17	16.23	18.99	28.56	45.97	153.6	788.9	 3560
615.0	104.6	76.95	57.13	40.95	32.78	30.93	30.43	32.81	34.81	41.08	46.94	55.33	50.33	46.65	50.79	289.2	 2863	9999.9	9999.9	65.34	34.93	29.46	27.69	25.17	24.10	22.92	22.12	21.67	21.68	21.22	22.29	21.11	21.70	20.22	19.73	18.87	17.96	16.91	16.28	16.23	16.08	15.82	15.62	16.22	16.32	16.84	16.08	15.69	14.44	13.19	12.76	11.95	11.90	12.14	12.28	12.68	13.34	14.17	14.11	14.21	13.90	13.92	13.96	13.99	13.74	13.73	13.29	14.05	14.04	13.67	13.53	14.14	16.54	21.57	46.05	188.9	809.5
620.0	95.90	74.55	56.28	40.84	33.67	29.41	31.78	32.75	34.15	40.35	46.46	50.78	50.11	44.25	41.37	94.49	694.0	 9190	9999.9	 1660	38.18	31.02	28.37	25.38	24.45	22.93	21.71	21.46	21.23	21.02	21.53	21.13	21.21	20.05	20.00	19.39	18.21	17.23	16.00	15.63	15.52	15.42	15.64	15.85	15.77	16.43	16.34	16.05	14.68	13.32	12.82	11.99	11.33	11.54	11.92	12.25	12.33	13.00	13.66	13.43	13.25	12.98	13.22	12.96	13.10	12.94	12.59	12.79	12.73	13.03	12.72	11.80	12.73	14.39	21.11	53.07	192.8
625.0	93.69	72.83	56.27	41.41	35.03	29.46	29.93	31.78	33.19	40.81	45.29	51.13	49.31	43.49	37.30	48.47	187.0	 3653	9999.9	 7259	53.73	33.52	29.27	27.14	24.91	23.50	22.14	21.26	21.49	20.64	20.84	20.06	21.16	20.17	19.42	19.45	18.47	17.42	16.09	15.28	15.12	14.71	15.22	15.53	15.56	15.88	16.23	16.18	14.87	13.70	12.83	11.96	11.09	11.26	11.49	11.58	11.78	11.87	12.60	12.70	12.61	12.41	12.29	12.40	13.05	12.49	12.11	12.05	11.89	11.86	11.46	10.88	11.04	11.37	13.30	21.39	52.82
630.0	91.53	73.24	56.02	39.65	31.75	29.11	28.24	30.33	33.28	38.44	43.43	49.09	48.03	42.25	35.60	35.50	68.79	904.8	 8656	9999.9	 1653	39.38	30.51	27.45	25.44	23.59	22.73	21.97	21.20	20.95	20.22	19.90	19.75	19.89	19.37	19.17	18.01	17.38	16.37	15.52	15.13	14.27	14.44	14.85	15.16	15.52	16.03	15.84	14.87	13.94	12.98	12.13	11.27	11.23	11.21	11.44	11.24	11.38	11.54	11.80	11.78	12.00	12.04	11.80	11.93	12.16	11.70	11.29	10.91	10.79	10.59	9.794	9.597	9.602	10.54	12.60	20.26
635.0	92.81	72.54	51.39	37.72	29.78	27.57	26.62	29.31	32.20	37.21	42.78	46.92	45.46	41.28	34.02	30.79	37.88	228.9	 2295	9999.9	9999.9	59.87	33.43	28.56	26.21	24.36	22.49	22.38	21.79	21.35	20.57	19.54	19.21	18.76	18.81	18.23	18.10	17.11	16.85	15.81	15.18	14.38	14.12	14.01	14.67	15.02	15.47	15.43	14.97	13.97	13.17	12.65	11.47	10.97	10.87	11.14	10.78	11.07	10.88	10.78	11.07	11.35	11.27	11.22	11.35	11.26	11.34	10.76	10.44	9.989	9.385	9.097	8.922	8.478	8.688	9.060	11.29
640.0	95.15	68.02	50.93	37.58	29.39	26.28	25.43	27.00	29.50	35.61	40.98	44.53	45.03	40.02	33.91	29.49	30.62	76.36	552.1	 7295	9999.9	 1798	37.47	30.31	27.55	25.33	23.04	22.40	21.88	22.36	20.78	20.07	18.98	18.56	18.50	17.74	18.42	17.35	16.92	15.83	15.34	14.57	14.18	13.47	13.74	14.65	14.97	15.65	14.84	13.94	13.39	12.33	11.70	11.23	11.04	10.98	10.72	10.72	10.27	9.999	10.45	10.68	10.69	10.75	10.49	10.30	10.58	10.52	10.04	9.993	8.918	8.480	8.234	8.199	8.038	7.799	8.697
645.0	91.35	68.73	49.49	36.97	27.59	26.78	24.91	26.79	29.09	35.80	38.40	43.23	43.65	39.12	33.76	28.23	27.54	40.48	151.3	 2589	9999.9	 7566	52.37	32.17	27.90	25.05	23.30	22.73	21.27	22.50	21.44	20.21	19.20	18.21	17.31	17.50	18.02	17.26	16.58	15.89	15.25	14.50	14.91	13.86	13.71	14.58	14.51	15.23	14.48	13.75	13.55	12.81	12.01	11.32	11.10	10.92	10.60	10.39	10.15	9.730	9.885	9.782	10.30	10.39	9.899	10.24	9.835	10.13	9.639	9.251	8.660	8.039	7.717	7.610	7.494	7.287	7.327
650.0	87.72	64.72	49.64	35.11	28.13	25.75	24.86	26.36	28.53	35.43	38.01	42.56	41.75	37.20	33.23	27.44	24.53	29.81	58.86	664.4	9999.9	9999.9	361.5	34.72	27.94	25.23	23.69	22.88	21.69	22.20	21.23	20.44	19.29	18.44	17.43	17.30	17.63	16.78	16.84	15.96	15.24	14.49	14.93	14.62	13.81	13.81	14.24	14.59	14.57	13.72	13.04	12.85	12.23	12.16	11.56	11.21	10.74	10.35	10.02	10.08	9.489	9.651	9.738	9.782	9.696	9.999	9.483	9.586	9.437	9.135	8.476	7.620	7.248	7.275	7.157	7.064	6.678
