Sample:	'1
File name:	Default_20230324_095050.FD3
Run date:	'09:44:29, 03/24/2023
Operator:	user
Comment:	'

Instrument
Model:	F-2700 FL Spectrophotometer
Serial number:	2190-003
ROM Version:	4J14000 07

Instrument parameters
Measurement type:	3-D scan
Data mode:	Fluorescence
EX  Start WL:	220.0 nm
EX  End WL:	600.0 nm
EX Sampling interval:	5.0 nm
EM  Start WL:	230.0 nm
EM  End WL:	650.0 nm
EM Sampling interval:	5.0 nm
Scan speed:	12000 nm/min
EX Slit:	5.0 nm
EM Slit:	5.0 nm
PMT Voltage:	700 V
Response:	Auto 
Corrected spectra:	Off
Contour interval:	50.000

Peak integration
Integration method:	Rectangular
Sensitivity:	1
Threshold:	1.000

Peaks
No.	ApexEX/EM(nm)	Height(Data)
1	245.0/265.0	66.45
2	245.0/530.0	58.02
3	250.0/270.0	119.2
4	250.0/545.0	47.61
5	255.0/280.0	238.3
6	255.0/555.0	16.26
7	260.0/560.0	14.26
8	265.0/410.0	708.7
9	265.0/425.0	660.1
10	265.0/635.0	138.5
11	270.0/315.0	 4447
12	270.0/435.0	624.1
13	275.0/440.0	623.2
14	275.0/605.0	212.5
15	285.0/380.0	755.8
16	285.0/395.0	766.8
17	290.0/400.0	771.6
18	295.0/405.0	773.1
19	305.0/340.0	551.5
20	310.0/345.0	490.9
21	315.0/355.0	440.5
22	320.0/270.0	-11.60
23	320.0/360.0	484.5
24	320.0/635.0	321.3
25	325.0/295.0	-9.121
26	325.0/365.0	483.4
27	330.0/375.0	472.2
28	335.0/255.0	-9.367
29	335.0/380.0	498.9
30	340.0/385.0	494.3
31	345.0/260.0	-8.014
32	345.0/320.0	-6.772
33	365.0/255.0	-6.414
34	365.0/295.0	-6.468
35	370.0/240.0	-5.842
36	380.0/305.0	-5.425
37	385.0/280.0	-4.980
38	385.0/340.0	-4.723
39	390.0/315.0	-4.665
40	395.0/295.0	-3.927
41	400.0/285.0	-4.504
42	400.0/355.0	-4.219
43	405.0/265.0	-4.541
44	405.0/335.0	-3.833
45	420.0/375.0	-3.777
46	420.0/625.0	-3.574
47	425.0/255.0	-3.428
48	450.0/530.0	18.37
49	465.0/375.0	-0.757
50	470.0/560.0	4.517
51	475.0/380.0	-0.564
52	475.0/565.0	2.231
53	495.0/405.0	-0.859
54	495.0/595.0	-1.914
55	510.0/620.0	-2.716
56	520.0/445.0	-2.293
57	525.0/315.0	4.953
58	535.0/310.0	4.677
59	545.0/480.0	-2.223
60	580.0/400.0	-1.573
61	590.0/420.0	-2.178

Data points
	220.0	225.0	230.0	235.0	240.0	245.0	250.0	255.0	260.0	265.0	270.0	275.0	280.0	285.0	290.0	295.0	300.0	305.0	310.0	315.0	320.0	325.0	330.0	335.0	340.0	345.0	350.0	355.0	360.0	365.0	370.0	375.0	380.0	385.0	390.0	395.0	400.0	405.0	410.0	415.0	420.0	425.0	430.0	435.0	440.0	445.0	450.0	455.0	460.0	465.0	470.0	475.0	480.0	485.0	490.0	495.0	500.0	505.0	510.0	515.0	520.0	525.0	530.0	535.0	540.0	545.0	550.0	555.0	560.0	565.0	570.0	575.0	580.0	585.0	590.0	595.0	600.0
230.0	-356.9	-185.8	965.1	700.7	-98.77	-146.7	-105.6	-95.17	-88.76	-79.47	-73.51	-63.44	-48.20	-40.86	-32.75	-25.14	-23.80	-18.05	-18.04	-13.69	-13.92	-12.44	-11.70	-10.43	-8.725	-9.866	-8.725	-8.420	-8.849	-8.360	-7.062	-7.612	-6.853	-6.644	-6.059	-5.459	-5.105	-5.586	-4.904	-5.142	-4.988	-5.099	-4.689	-4.474	-4.430	-4.419	-3.605	-3.390	-1.672	-1.625	-2.743	-3.929	-3.801	-3.957	-3.490	-3.859	-4.243	-4.126	-3.706	-3.905	-4.123	-4.208	-4.304	-3.688	-4.142	-4.305	-4.151	-3.938	-4.337	-4.718	-4.451	-4.715	-4.351	-4.615	-4.455	-4.827	-5.129
235.0	-379.0	-272.5	244.2	 1266	936.0	-49.09	-105.7	-102.7	-93.35	-75.57	-75.01	-57.42	-41.05	-40.84	-34.47	-23.02	-23.54	-17.32	-16.56	-15.52	-13.95	-10.94	-10.78	-11.74	-9.040	-9.774	-8.805	-8.202	-7.944	-8.407	-7.738	-7.121	-7.530	-6.893	-6.223	-5.934	-5.820	-4.873	-3.924	-4.538	-4.805	-4.294	-4.810	-4.704	-3.761	-4.441	-3.735	-3.384	-2.952	-1.570	-1.330	-1.071	-2.608	-3.418	-3.204	-3.557	-3.839	-3.907	-3.920	-4.511	-4.557	-4.170	-4.118	-4.601	-3.920	-4.651	-3.908	-4.495	-4.809	-4.789	-4.863	-4.593	-4.292	-4.343	-4.290	-4.983	-4.800
240.0	-327.8	-288.3	-134.4	600.1	 2063	762.8	-69.40	-97.42	-87.36	-75.68	-66.93	-51.87	-44.52	-32.90	-31.49	-28.42	-22.97	-16.75	-16.69	-15.34	-14.10	-10.12	-10.44	-10.25	-9.325	-9.240	-8.150	-9.044	-8.316	-8.705	-5.842	-7.013	-7.450	-6.677	-5.984	-5.423	-5.575	-6.005	-3.973	-5.691	-4.389	-4.574	-5.500	-4.371	-4.590	-4.286	-3.860	-4.411	-3.170	-2.184	-2.453	-0.994	-0.482	-1.500	-3.206	-4.082	-3.645	-3.809	-3.874	-4.209	-4.171	-4.113	-4.060	-3.927	-4.497	-4.183	-4.135	-4.499	-4.415	-4.497	-4.473	-4.299	-4.321	-4.175	-4.461	-4.789	-4.813
245.0	-313.8	-218.7	-170.2	24.03	 1256	 2223	581.3	-73.11	-87.83	-78.56	-65.95	-59.61	-48.27	-37.32	-28.29	-27.22	-23.61	-16.32	-16.76	-14.89	-15.08	-11.27	-11.13	-10.38	-8.527	-8.386	-9.462	-9.850	-9.327	-8.751	-7.640	-7.329	-7.058	-7.024	-5.684	-5.769	-5.573	-4.389	-4.337	-5.902	-4.798	-5.491	-4.953	-4.199	-4.212	-4.521	-3.743	-3.851	-3.438	-2.408	-3.001	-2.642	-1.607	-0.164	0.044	-1.802	-3.293	-4.574	-4.422	-4.633	-4.338	-3.620	-4.219	-4.045	-4.362	-4.419	-4.486	-4.447	-4.564	-4.722	-3.642	-4.287	-4.432	-4.635	-5.053	-4.920	-4.610
250.0	-315.9	-249.5	-136.7	-92.08	206.2	 1105	 2039	 1090	77.88	-80.27	-67.33	-58.37	-51.54	-35.84	-29.29	-26.29	-20.87	-20.56	-16.10	-17.73	-13.31	-11.93	-12.54	-10.43	-9.298	-8.440	-9.494	-8.500	-8.832	-8.630	-7.578	-8.338	-6.589	-7.185	-7.026	-5.557	-5.688	-5.555	-4.949	-5.041	-4.630	-4.610	-5.280	-4.252	-4.759	-4.851	-3.608	-3.552	-3.160	-2.907	-3.186	-3.415	-2.777	-2.981	-0.959	-0.356	0.314	0.271	-2.323	-3.629	-4.174	-3.905	-4.158	-4.256	-4.471	-4.453	-4.520	-4.220	-3.822	-4.651	-4.446	-4.202	-4.311	-4.494	-4.702	-5.235	-4.727
255.0	-348.1	-267.3	-196.8	-38.76	-8.383	161.3	716.9	 2431	 1625	102.6	-72.12	-55.02	-46.42	-36.58	-33.71	-25.17	-21.49	-17.17	-15.91	-15.49	-14.55	-13.27	-13.03	-9.367	-10.66	-8.083	-9.060	-8.547	-8.191	-6.414	-8.180	-7.567	-6.672	-6.300	-6.497	-6.425	-5.350	-5.204	-5.031	-5.708	-4.787	-3.428	-4.960	-5.270	-4.463	-4.183	-4.190	-4.099	-3.279	-3.247	-2.708	-3.589	-3.718	-3.920	-3.257	-3.200	-1.915	-0.822	1.936	2.009	-2.142	-3.871	-4.182	-4.834	-4.228	-4.141	-4.529	-4.311	-4.111	-4.809	-4.116	-4.698	-4.255	-4.791	-5.284	-5.276	-5.480
260.0	-345.4	-270.3	-226.9	-108.4	38.95	10.60	81.23	 1066	 3268	 1357	11.45	-53.55	-42.59	-33.33	-32.86	-23.40	-20.09	-18.15	-17.17	-15.59	-14.19	-12.99	-12.44	-10.81	-10.68	-8.014	-9.674	-8.000	-7.789	-7.664	-7.958	-7.773	-6.518	-6.329	-6.913	-4.756	-4.962	-5.437	-4.483	-4.539	-4.795	-4.235	-4.695	-5.342	-4.360	-4.124	-3.633	-4.046	-3.898	-3.793	-3.446	-3.276	-3.405	-3.873	-3.813	-3.548	-3.334	-3.294	-1.952	2.121	3.540	0.792	-3.150	-4.411	-4.037	-4.320	-4.746	-4.843	-4.141	-4.908	-4.511	-4.870	-4.228	-5.098	-4.193	-4.683	-5.617
265.0	-303.5	-332.8	-231.7	-188.3	17.10	66.45	-40.73	195.9	 1697	 3701	 1017	-22.69	-47.23	-28.61	-30.08	-22.85	-22.02	-19.10	-16.93	-16.55	-12.31	-11.95	-12.19	-10.54	-10.11	-10.03	-9.314	-8.660	-7.108	-8.054	-7.543	-6.863	-6.690	-6.763	-7.013	-5.798	-5.604	-4.541	-5.631	-4.807	-4.977	-4.390	-5.443	-4.592	-4.443	-4.193	-4.441	-4.196	-3.546	-3.394	-2.883	-4.087	-3.587	-3.844	-3.448	-3.859	-3.653	-4.132	-3.335	-1.843	0.540	3.665	4.834	-0.152	-3.632	-4.665	-4.502	-4.902	-4.173	-4.544	-4.458	-4.578	-4.116	-5.151	-4.802	-4.823	-5.115
270.0	-299.5	-295.8	-251.7	-163.7	-99.53	51.47	119.2	32.13	364.4	 1673	 3327	 2365	201.7	-34.12	-30.56	-22.54	-17.39	-17.78	-14.24	-14.93	-11.60	-12.66	-11.99	-10.49	-9.165	-9.615	-9.249	-8.491	-8.392	-9.242	-7.940	-7.253	-6.637	-6.348	-5.795	-5.391	-5.612	-5.386	-5.291	-5.489	-5.176	-4.830	-5.168	-4.755	-4.376	-4.521	-4.222	-3.879	-3.632	-3.009	-3.154	-3.730	-3.079	-3.729	-3.352	-3.465	-4.007	-3.554	-4.078	-4.041	-3.164	-1.682	1.084	2.609	4.347	3.060	-1.541	-4.036	-4.215	-4.328	-4.306	-4.625	-4.363	-4.937	-4.444	-4.853	-4.754
275.0	-336.9	-283.0	-218.7	-177.4	-149.0	-83.39	83.85	200.0	74.64	356.5	 1108	 4020	 3522	229.5	-27.41	-25.81	-22.13	-17.71	-15.81	-15.81	-13.63	-11.54	-10.34	-10.07	-11.51	-9.841	-8.867	-9.023	-9.356	-7.700	-8.048	-6.675	-7.020	-6.358	-6.304	-5.107	-5.216	-5.764	-5.391	-5.078	-5.107	-5.091	-4.891	-4.941	-4.239	-4.265	-3.390	-4.271	-4.014	-2.569	-3.001	-3.148	-3.624	-3.279	-3.129	-3.341	-3.388	-3.423	-3.046	-4.504	-3.511	-3.729	-2.977	-2.317	-1.352	4.007	8.127	6.218	-1.073	-3.840	-4.602	-4.098	-4.609	-5.230	-4.218	-5.085	-4.604
280.0	-312.1	-268.1	-157.1	-161.1	-141.9	-110.8	-16.06	238.3	195.8	95.33	287.8	 1596	 5103	 2996	78.00	-25.76	-19.61	-16.00	-16.34	-15.99	-14.15	-12.12	-11.13	-11.21	-9.317	-8.298	-8.564	-8.792	-7.719	-9.543	-7.632	-7.478	-6.784	-4.980	-6.011	-5.355	-5.185	-5.494	-5.255	-4.980	-4.913	-4.896	-4.841	-4.705	-4.033	-4.341	-3.716	-3.683	-3.339	-2.817	-2.869	-3.222	-3.754	-3.430	-3.588	-3.780	-3.322	-4.067	-2.976	-3.980	-3.713	-4.279	-4.119	-3.638	-3.741	-1.554	1.539	6.801	10.25	4.732	-3.488	-4.360	-4.217	-4.278	-4.198	-4.793	-5.046
285.0	-292.0	-237.6	-175.5	-143.0	-113.2	-89.32	-62.32	140.5	382.8	197.6	178.5	497.7	 2360	 5774	671.3	12.44	-15.09	-18.17	-14.23	-16.10	-11.72	-12.03	-11.24	-12.78	-9.999	-9.409	-8.548	-7.787	-8.209	-7.439	-8.373	-7.157	-6.359	-5.318	-5.101	-6.234	-4.504	-5.670	-4.442	-5.201	-4.298	-5.019	-4.691	-5.250	-4.338	-4.721	-3.994	-3.419	-3.219	-3.127	-2.315	-2.953	-4.031	-3.571	-3.330	-3.813	-4.248	-4.352	-3.625	-2.650	-2.503	-3.752	-4.533	-4.157	-4.050	-3.750	-3.064	-0.373	5.166	10.19	8.965	0.434	-4.018	-5.145	-4.309	-4.351	-4.755
290.0	-254.3	-151.0	-61.37	-50.49	-46.24	9.896	66.04	222.1	460.3	744.1	686.1	622.2	 1005	 2557	 4114	 2443	158.8	-15.59	-15.14	-12.94	-13.91	-11.60	-11.56	-10.35	-10.31	-9.915	-9.197	-8.921	-7.875	-6.783	-6.555	-6.195	-7.141	-6.557	-5.989	-6.059	-5.161	-5.570	-5.055	-4.979	-4.472	-4.541	-4.996	-4.970	-4.372	-4.431	-3.275	-4.012	-3.527	-2.676	-2.746	-3.496	-3.841	-3.465	-3.504	-3.447	-3.727	-3.502	-3.669	-2.987	-3.260	-2.328	-2.324	-2.508	-2.779	-2.830	-2.696	-2.309	-1.460	1.231	4.315	7.220	8.150	4.592	-1.408	-3.817	-4.610
295.0	-230.9	-46.83	93.59	77.37	164.9	289.4	514.6	763.3	 1114	 1472	 1931	 1325	 1232	 1332	 1539	 4239	 3571	192.2	-11.68	-13.43	-11.06	-9.121	-11.41	-9.315	-10.61	-7.908	-9.857	-10.22	-7.119	-6.468	-7.959	-6.654	-6.526	-6.613	-4.867	-3.927	-5.178	-4.732	-5.142	-5.179	-4.862	-4.738	-5.034	-4.456	-4.399	-4.059	-2.683	-3.520	-3.120	-2.944	-2.591	-2.790	-3.048	-3.248	-2.870	-2.629	-3.124	-1.929	-2.953	-1.232	-2.621	-1.691	-1.226	0.218	-0.019	-1.242	-0.759	-0.764	-1.482	-1.312	-0.762	-1.449	0.671	6.968	14.27	9.869	-1.089
300.0	-130.8	-3.710	221.0	219.4	394.0	632.5	 1068	 1543	 1939	 2449	 2941	 3033	 2293	 1642	980.4	 1754	 5352	 2656	96.94	-12.67	-10.72	-10.92	-9.795	-8.394	-9.062	-8.502	-9.090	-8.858	-7.453	-6.949	-8.091	-6.533	-6.631	-6.059	-5.309	-4.991	-6.081	-5.472	-5.227	-4.666	-4.085	-4.809	-4.415	-4.781	-4.757	-4.086	-2.736	-3.323	-2.931	-2.446	-2.695	-3.181	-2.854	-2.045	-1.977	-1.401	-1.648	-0.519	-0.395	0.495	0.221	1.200	0.973	1.659	1.505	1.913	2.158	0.554	0.126	-0.707	-0.990	-1.397	-3.035	-0.910	3.856	12.86	15.11
305.0	-142.8	49.59	258.0	329.0	542.2	971.0	 1570	 2188	 2849	 3325	 3781	 3939	 3278	 2063	 1077	767.8	 2356	 5408	 1896	19.96	-6.636	-9.001	-8.936	-9.091	-9.578	-8.754	-8.693	-7.825	-7.684	-6.997	-7.626	-6.487	-5.425	-6.427	-4.980	-5.484	-6.063	-5.724	-5.057	-3.820	-4.779	-4.514	-3.968	-4.134	-3.431	-4.104	-3.549	-2.711	-2.491	-1.857	-2.499	-2.190	-2.517	-2.268	-0.411	-1.171	-0.258	1.163	1.035	1.000	2.402	2.757	3.198	3.075	3.585	3.591	3.991	2.901	1.818	0.012	-0.262	-1.825	-2.487	-2.502	-2.069	1.133	7.763
310.0	-119.9	22.58	292.2	441.3	674.4	 1209	 1884	 2651	 3341	 3958	 4293	 4215	 3803	 2612	 1302	629.9	700.7	 2167	 4288	 2254	112.2	-7.574	-8.716	-8.210	-7.443	-8.677	-8.661	-7.636	-6.866	-7.266	-6.698	-6.200	-6.133	-5.692	-5.519	-5.102	-5.817	-5.002	-4.736	-4.958	-4.221	-4.301	-4.173	-4.001	-3.839	-3.874	-3.682	-3.186	-2.599	-1.866	-2.134	-1.870	-2.035	-1.020	-0.567	-0.788	1.390	1.566	2.164	2.435	3.429	4.063	4.483	4.677	4.079	4.426	4.185	4.520	4.124	2.480	0.596	-1.236	-1.487	-2.657	-2.625	-2.958	-1.382
315.0	-135.5	82.05	287.8	406.2	767.0	 1250	 2043	 2799	 3530	 4108	 4447	 4280	 3672	 2847	 1577	646.1	345.5	565.9	 1237	 3897	 2396	151.2	-8.381	-7.436	-7.771	-8.688	-8.367	-8.038	-7.021	-7.812	-7.767	-6.241	-6.640	-5.986	-4.665	-5.766	-5.659	-4.741	-5.202	-4.905	-4.533	-4.670	-4.708	-4.228	-3.954	-4.689	-3.327	-3.406	-2.537	-2.474	-2.172	-1.972	-1.767	-1.754	-0.425	0.323	1.415	1.678	2.584	1.936	4.328	4.953	4.317	4.518	4.296	4.820	4.082	4.136	3.354	2.509	0.876	-0.395	-1.823	-2.267	-3.069	-3.867	-3.533
320.0	-139.4	119.3	334.6	431.5	726.8	 1161	 1911	 2650	 3314	 3900	 4250	 4012	 3419	 2524	 1684	750.0	277.9	225.9	324.4	 1419	 4685	 1970	86.90	-5.073	-8.039	-6.772	-8.136	-7.477	-7.533	-8.847	-6.730	-7.887	-6.542	-5.962	-4.849	-5.485	-5.609	-4.836	-4.933	-5.836	-4.173	-4.025	-4.297	-3.949	-4.447	-4.586	-3.477	-3.304	-2.773	-1.707	-1.793	-2.594	-1.741	-1.260	-0.735	-0.370	0.342	1.831	1.380	2.823	3.213	4.340	4.030	4.240	3.485	3.304	3.230	3.136	3.604	2.495	0.662	-0.114	-1.263	-2.732	-3.414	-3.569	-4.385
325.0	-82.66	159.5	347.0	465.8	698.5	 1081	 1739	 2358	 2995	 3507	 3719	 3606	 3014	 2250	 1537	935.1	318.3	168.7	145.0	365.1	 2066	 4782	 1460	29.60	-5.799	-8.191	-8.277	-6.298	-6.574	-7.452	-7.244	-7.323	-5.721	-5.391	-6.134	-5.578	-5.378	-4.643	-3.920	-4.735	-4.195	-4.411	-4.794	-3.967	-4.267	-4.274	-3.487	-3.166	-2.794	-2.391	-2.619	-2.759	-1.906	-0.756	-1.031	-0.190	0.488	1.942	1.570	2.652	2.871	3.409	3.986	2.326	3.054	2.889	2.844	3.778	1.720	0.793	-0.467	-1.471	-1.180	-2.176	-2.919	-3.732	-4.325
330.0	-72.60	192.0	422.8	545.4	733.9	 1034	 1566	 2034	 2539	 2989	 3148	 3063	 2606	 1905	 1229	864.9	545.7	235.8	137.2	150.2	523.2	 1962	 3583	 2086	87.66	-6.026	-7.340	-6.448	-7.530	-7.929	-7.287	-6.805	-6.437	-6.036	-5.334	-5.003	-5.511	-4.944	-5.120	-5.096	-4.526	-4.486	-4.892	-4.148	-3.397	-3.920	-2.942	-2.941	-2.259	-1.867	-2.304	-2.941	-1.770	-1.481	-1.384	-0.213	0.164	0.717	0.712	1.171	2.047	2.458	2.321	1.874	2.027	1.811	2.172	1.863	0.741	0.185	-0.846	-1.925	-1.711	-1.903	-2.643	-2.942	-3.349
335.0	-104.8	279.8	479.8	631.6	727.1	 1054	 1478	 1718	 2082	 2392	 2517	 2477	 2171	 1618	 1031	675.5	572.3	445.7	208.3	141.2	191.0	482.3	 1070	 3910	 1785	124.2	-3.999	-5.504	-6.861	-7.035	-6.956	-6.706	-6.145	-6.463	-6.675	-4.813	-5.200	-3.833	-4.930	-4.756	-4.489	-4.814	-5.283	-4.458	-3.803	-4.050	-3.105	-3.146	-2.284	-1.499	-1.808	-1.918	-1.281	-1.438	-1.619	-0.479	-0.395	-0.488	-0.188	0.599	0.956	0.291	0.428	0.867	0.637	0.910	0.598	0.386	-0.291	-0.779	-1.472	-2.190	-2.241	-2.841	-2.021	-2.874	-2.743
340.0	-57.67	180.3	527.4	697.1	802.7	 1074	 1350	 1494	 1814	 2112	 2080	 2068	 1827	 1370	925.8	611.3	484.0	551.5	347.8	174.6	139.2	174.8	286.7	 1496	 4201	 1562	75.02	-5.505	-7.530	-5.713	-6.583	-7.279	-6.136	-4.723	-6.281	-4.833	-5.563	-5.323	-4.968	-5.542	-4.800	-4.014	-4.865	-3.821	-3.641	-3.107	-2.695	-2.357	-2.585	-1.829	-2.027	-2.084	-1.818	-1.990	-0.952	-1.738	-1.639	-0.831	0.081	0.457	0.101	-0.907	0.163	-0.061	0.155	-0.041	-0.250	-0.405	-0.008	-0.658	-1.690	-2.101	-3.174	-3.464	-2.199	-4.047	-3.553
345.0	-36.11	252.7	519.9	742.9	885.1	 1087	 1317	 1423	 1615	 1759	 1815	 1714	 1537	 1214	869.0	588.9	452.8	479.9	490.9	254.1	156.6	128.9	124.2	384.0	 2004	 4393	 1219	22.22	-6.340	-5.369	-6.665	-6.046	-6.408	-6.136	-6.348	-5.510	-5.594	-4.518	-4.154	-4.551	-4.714	-4.867	-4.404	-3.229	-3.537	-4.022	-3.403	-2.541	-2.586	-1.801	-1.766	-1.945	-1.615	-1.869	-1.254	-1.220	-1.199	-0.567	-1.021	-0.378	-1.315	-0.792	-0.797	0.167	-1.405	-1.442	-0.969	-1.225	-1.171	-2.120	-2.450	-2.276	-3.272	-3.675	-3.307	-4.030	-3.617
350.0	-53.31	277.9	575.4	839.3	 1012	 1115	 1278	 1349	 1410	 1480	 1479	 1365	 1267	 1033	781.3	578.7	461.5	418.8	455.6	414.6	251.2	160.2	124.8	155.4	516.8	 1937	 3380	 1757	73.88	-4.250	-4.842	-5.687	-6.034	-6.000	-5.522	-5.678	-4.933	-4.756	-4.817	-4.865	-4.720	-4.836	-4.533	-3.965	-4.227	-3.960	-2.944	-2.783	-2.079	-1.665	-1.702	-1.196	-1.480	-1.681	-1.393	-1.010	-1.273	-1.543	-1.405	-1.482	-1.138	-0.965	-1.077	-1.101	-1.002	-1.124	-1.744	-1.476	-1.909	-2.232	-2.617	-2.793	-2.858	-3.261	-2.879	-3.830	-3.012
355.0	-35.37	152.1	605.0	825.1	 1093	 1168	 1263	 1235	 1258	 1244	 1235	 1108	 1052	890.8	714.0	585.2	483.3	428.7	403.9	440.5	434.1	250.3	166.0	139.6	192.0	482.1	 1091	 3466	 1500	101.0	-3.353	-4.218	-6.528	-6.006	-4.731	-4.407	-4.219	-4.465	-5.508	-4.189	-4.995	-4.759	-4.260	-3.660	-4.291	-3.528	-2.740	-2.444	-2.107	-1.522	-1.523	-1.564	-1.188	-1.413	-1.252	-0.871	-1.294	-1.280	-1.693	-1.809	-0.958	-1.603	-1.376	-1.343	-1.093	-1.938	-2.013	-2.222	-2.402	-2.725	-2.543	-2.354	-2.574	-3.476	-3.334	-3.235	-3.429
360.0	-53.14	229.0	570.2	866.0	 1081	 1165	 1260	 1207	 1137	 1114	 1063	981.9	935.7	816.9	694.3	599.3	511.2	460.0	418.3	404.9	484.5	385.2	218.4	163.7	146.7	175.7	293.2	 1443	 3937	 1324	56.62	-3.170	-5.770	-4.868	-4.327	-4.867	-5.238	-4.396	-5.119	-5.218	-4.843	-4.099	-3.987	-4.582	-4.032	-3.749	-2.549	-2.727	-1.771	-1.569	-1.859	-1.335	-1.091	-1.719	-1.216	-0.832	-0.903	-1.088	-1.524	-1.660	-1.377	-1.512	-2.124	-2.165	-1.682	-2.026	-2.022	-1.367	-2.249	-2.401	-2.141	-2.796	-2.520	-2.754	-3.142	-3.050	-2.967
365.0	13.89	229.8	552.3	856.0	 1076	 1179	 1245	 1137	 1057	 1050	977.1	896.9	880.1	780.1	699.6	609.8	541.6	493.4	455.2	410.7	442.7	483.4	282.1	208.2	163.4	135.8	131.1	381.5	 2032	 4132	 1034	15.56	-4.679	-5.131	-4.784	-3.809	-5.278	-5.249	-5.148	-4.966	-4.974	-4.554	-4.625	-4.213	-3.507	-3.311	-2.884	-3.137	-1.810	-1.163	-1.643	-1.314	-0.884	-1.594	-0.878	-2.025	-0.963	-0.993	-1.667	-1.245	-1.110	-1.283	-1.640	-2.127	-2.279	-1.518	-1.911	-2.335	-1.961	-2.192	-2.066	-2.825	-2.215	-2.626	-3.630	-3.159	-3.423
370.0	-69.46	240.9	584.8	861.7	 1052	 1173	 1234	 1072	995.1	973.2	902.3	827.1	795.1	744.6	697.9	635.7	580.6	552.5	511.4	465.2	447.4	465.0	449.1	311.9	217.2	169.6	129.8	154.9	526.2	 1965	 3360	 1600	56.34	-3.536	-4.777	-4.081	-5.074	-4.428	-4.964	-5.096	-4.613	-4.606	-4.775	-3.683	-3.939	-3.458	-2.569	-2.667	-1.584	-1.468	-1.562	-1.360	-1.650	-1.434	-1.006	-1.420	-1.242	-1.137	-1.688	-1.853	-2.012	-2.294	-2.063	-2.500	-2.243	-2.098	-2.553	-2.428	-2.461	-2.612	-2.610	-2.420	-2.304	-2.390	-2.642	-2.818	-2.572
375.0	-4.257	236.6	598.5	864.9	 1044	 1156	 1183	 1057	 1001	897.2	839.8	741.4	764.1	744.0	709.6	680.2	638.5	605.6	556.3	525.4	492.6	462.7	472.2	463.0	319.3	224.5	168.2	139.5	188.7	482.9	 1175	 3580	 1217	71.73	-3.202	-4.006	-5.092	-4.740	-4.210	-4.357	-3.777	-5.039	-4.592	-4.146	-3.591	-3.591	-2.532	-2.928	-2.090	-0.757	-1.510	-1.266	-1.114	-1.362	-0.853	-0.961	-1.061	-1.039	-1.533	-2.170	-2.203	-2.320	-2.815	-2.596	-2.320	-2.763	-2.674	-2.844	-2.725	-1.849	-2.444	-2.944	-2.475	-2.627	-2.843	-2.336	-1.769
380.0	-134.8	268.8	566.0	825.4	978.3	 1153	 1119	 1035	926.1	844.2	786.4	744.2	747.3	755.8	738.5	703.6	676.1	643.9	596.6	562.1	528.5	494.2	456.2	498.9	420.4	280.9	204.1	157.7	131.7	166.1	310.0	 1599	 3749	 1026	34.98	-3.345	-4.183	-4.223	-5.417	-3.705	-4.500	-5.421	-4.919	-4.394	-3.855	-3.980	-2.908	-1.814	-1.801	-1.523	-1.447	-0.564	-1.555	-1.015	-1.216	-1.582	-0.832	-1.250	-2.552	-2.495	-2.215	-1.803	-2.194	-2.705	-2.358	-2.863	-2.413	-2.260	-2.919	-2.667	-2.605	-2.356	-3.022	-2.967	-3.385	-2.009	-2.700
385.0	-160.4	247.6	543.0	848.7	985.6	 1094	 1085	951.1	882.1	825.7	758.4	728.2	747.7	749.3	748.3	736.3	711.0	677.0	629.6	598.4	562.6	527.2	482.8	468.8	494.3	361.3	248.0	187.0	139.5	115.2	122.6	413.9	 2137	 3569	729.3	4.464	-2.644	-4.614	-4.782	-3.639	-5.112	-4.040	-4.552	-3.902	-3.921	-3.047	-2.953	-2.841	-1.904	-1.827	-2.064	-1.493	-1.104	-1.091	-1.664	-1.564	-1.712	-1.830	-2.710	-1.980	-1.838	-1.464	-2.423	-2.661	-2.674	-2.612	-2.521	-2.658	-2.192	-3.069	-3.233	-2.175	-2.424	-2.162	-3.133	-3.296	-2.939
390.0	-71.05	208.3	539.7	857.6	967.5	 1067	 1030	905.5	830.6	781.7	744.4	711.3	744.6	765.0	752.8	746.0	730.9	707.1	670.1	629.3	590.0	556.1	510.5	474.3	477.8	460.1	338.3	240.2	178.9	136.0	108.6	145.8	552.3	 1843	 2769	 1122	40.71	-3.014	-3.759	-3.895	-4.402	-4.529	-3.575	-4.155	-4.112	-3.516	-2.503	-2.883	-1.803	-1.879	-1.634	-1.702	-1.333	-1.446	-0.945	-1.577	-1.951	-1.785	-2.292	-1.923	-1.807	-2.051	-2.516	-3.046	-2.731	-2.343	-2.710	-2.379	-2.948	-3.125	-2.597	-2.373	-2.645	-2.670	-2.724	-2.944	-2.813
395.0	-110.9	180.1	538.3	815.8	913.8	968.7	972.3	869.2	781.4	755.4	719.8	712.8	752.6	766.8	764.8	760.4	735.1	716.3	680.5	654.8	614.1	574.9	540.5	497.6	468.6	452.9	436.2	319.8	222.5	174.7	129.4	113.6	171.5	444.2	 1095	 2941	928.2	47.36	-3.468	-3.690	-3.389	-4.288	-3.951	-4.150	-3.017	-3.517	-3.368	-2.553	-2.095	-2.453	-1.431	-2.071	-2.319	-1.632	-1.684	-1.883	-1.217	-1.565	-2.089	-2.403	-2.638	-2.453	-2.594	-2.931	-2.524	-2.052	-2.623	-2.849	-2.815	-3.091	-2.200	-2.054	-1.608	-3.016	-2.512	-2.237	-1.658
400.0	-35.45	179.2	567.2	780.4	861.4	949.6	951.7	822.6	765.8	720.4	685.8	717.0	738.9	750.5	771.6	760.9	753.3	724.0	706.6	647.3	616.6	583.8	555.5	517.7	476.7	434.9	450.6	395.6	269.0	203.6	154.5	122.7	102.5	140.9	280.6	 1483	 2919	761.5	18.65	-3.464	-3.444	-3.929	-4.489	-3.716	-3.680	-3.329	-3.579	-2.578	-2.403	-1.738	-1.732	-2.236	-1.984	-2.087	-1.477	-1.571	-1.599	-1.908	-2.318	-2.477	-2.472	-2.411	-2.703	-2.998	-2.596	-2.587	-2.796	-2.581	-2.730	-2.094	-3.038	-2.174	-1.573	-2.208	-2.562	-2.835	-2.054
405.0	-64.43	122.2	448.4	698.9	866.3	927.0	965.0	809.3	740.1	694.2	685.7	690.3	721.6	746.9	758.2	773.1	741.1	718.9	699.3	653.3	623.5	580.7	560.2	534.8	485.9	441.2	427.0	440.5	335.8	231.7	179.2	138.2	103.1	85.43	100.5	390.4	 1820	 2719	531.0	3.102	-2.818	-4.745	-4.231	-3.404	-4.494	-3.882	-3.262	-2.567	-2.037	-1.927	-1.532	-2.093	-1.631	-2.043	-1.405	-0.859	-2.082	-2.544	-2.814	-2.409	-2.706	-2.549	-1.853	-3.002	-2.995	-2.489	-3.202	-2.597	-2.338	-2.135	-2.722	-2.069	-2.062	-2.216	-3.018	-3.093	-2.537
410.0	-41.31	180.8	443.5	671.6	834.8	876.2	838.9	772.5	686.7	708.7	679.1	685.5	673.3	731.0	746.7	733.3	723.2	707.1	670.4	635.4	610.1	577.2	556.3	537.3	496.2	458.1	422.6	412.7	397.8	304.3	217.5	165.9	125.4	88.61	70.30	120.2	472.8	 1546	 2137	490.7	32.02	-3.851	-3.547	-3.584	-4.069	-3.606	-2.784	-2.568	-2.743	-1.905	-1.613	-1.520	-1.768	-1.597	-1.425	-1.943	-2.090	-2.450	-2.630	-2.299	-3.046	-2.811	-2.337	-2.606	-2.947	-2.338	-3.026	-2.665	-2.750	-2.246	-3.003	-2.305	-2.327	-2.302	-2.550	-2.460	-2.719
415.0	-136.8	115.1	428.9	678.5	750.7	798.7	798.9	742.0	673.9	656.1	651.7	666.8	683.4	677.2	709.4	714.3	679.6	671.1	643.4	604.1	591.8	561.1	546.5	525.4	500.6	470.5	420.3	395.3	378.7	372.1	279.4	196.7	146.4	108.9	80.28	68.71	132.7	364.1	890.5	 2238	779.9	38.36	-2.908	-3.474	-3.135	-3.072	-2.881	-2.846	-2.015	-1.549	-1.858	-1.807	-2.181	-1.643	-1.986	-2.380	-1.454	-2.419	-1.710	-2.794	-2.408	-2.954	-2.803	-2.814	-3.148	-2.680	-3.060	-2.779	-3.075	-2.803	-2.877	-2.080	-3.157	-2.583	-2.540	-2.836	-2.328
420.0	-184.1	142.5	401.2	648.6	729.8	764.4	723.7	646.3	617.5	643.3	617.8	657.9	675.4	667.9	679.7	687.8	652.7	648.7	617.3	588.4	564.7	543.5	533.8	520.2	492.0	464.4	433.3	396.4	366.9	369.4	328.7	224.4	164.9	122.6	90.81	65.77	64.87	104.0	223.0	 1206	 2214	623.1	9.724	-3.300	-2.488	-2.336	-2.608	-1.934	-2.455	-1.943	-2.084	-2.302	-2.021	-2.110	-2.290	-2.683	-2.041	-2.802	-2.271	-2.939	-2.001	-3.418	-3.088	-3.067	-3.250	-3.164	-2.989	-3.324	-2.298	-2.894	-2.875	-2.670	-2.365	-2.974	-2.178	-3.435	-3.477
425.0	-159.0	141.9	343.1	582.9	681.3	712.5	715.0	666.6	611.1	660.1	619.5	610.8	646.3	648.6	665.0	652.5	642.3	621.3	587.8	572.7	548.6	532.7	527.2	505.7	486.3	462.4	440.9	398.2	371.2	349.0	356.2	265.4	188.2	141.7	104.3	75.43	54.52	50.75	67.48	315.4	 1415	 2107	98.37	-0.262	-2.853	-3.189	-2.505	-2.513	-1.900	-2.098	-2.261	-2.512	-2.272	-1.546	-2.427	-2.026	-1.993	-2.170	-2.663	-2.799	-2.445	-2.769	-2.804	-2.662	-2.546	-3.293	-2.797	-3.426	-2.430	-2.935	-2.426	-3.392	-2.407	-1.994	-2.782	-2.775	-2.654
430.0	-115.0	114.5	310.9	530.8	640.4	660.3	672.1	638.8	603.2	647.9	606.5	610.4	615.2	635.6	639.6	609.1	602.2	580.0	553.0	533.2	520.7	507.2	501.1	490.8	476.4	457.0	431.5	402.9	375.7	345.0	336.6	309.4	233.6	167.4	122.4	91.64	66.90	50.54	42.08	88.65	366.0	 1208	 1650	424.3	25.07	-1.914	-2.062	-3.066	-2.489	-2.081	-2.018	-2.306	-2.571	-2.437	-2.316	-2.003	-2.059	-2.005	-3.263	-2.655	-2.522	-3.050	-2.988	-2.872	-2.250	-2.937	-3.194	-3.248	-2.361	-2.858	-2.796	-2.801	-2.649	-2.447	-2.608	-2.761	-3.061
435.0	-86.43	104.3	301.1	474.7	619.9	616.4	660.7	645.5	600.0	587.4	624.1	608.2	608.6	602.9	595.2	579.8	553.5	541.3	517.7	504.5	496.2	487.7	466.8	465.9	459.2	440.1	422.8	400.5	383.6	356.2	327.5	297.7	278.2	200.3	146.5	112.1	85.07	62.16	45.66	47.04	99.60	282.6	744.5	 1829	670.5	31.14	-1.895	-2.109	-1.926	-1.900	-1.131	-2.211	-2.292	-2.109	-1.859	-2.001	-2.723	-2.753	-2.690	-2.611	-3.539	-2.925	-2.653	-2.462	-2.928	-2.965	-2.874	-3.621	-2.234	-2.852	-3.066	-3.567	-3.108	-2.702	-3.134	-3.032	-2.894
440.0	-84.56	94.67	291.1	449.3	531.1	595.6	656.2	595.8	577.3	566.6	620.9	623.2	575.4	589.3	565.1	557.8	522.3	502.4	483.8	475.6	472.3	462.6	451.2	447.7	438.0	425.9	417.7	399.5	387.3	352.8	326.8	290.6	279.2	241.2	167.8	131.4	98.94	74.88	54.44	43.83	44.40	79.49	186.0	 1048	 1903	544.8	8.576	-1.806	-1.763	-1.343	-1.999	-2.418	-1.953	-3.245	-1.963	-3.226	-2.243	-2.422	-2.693	-3.549	-3.176	-3.125	-2.780	-2.634	-2.991	-2.845	-2.902	-3.130	-2.704	-3.042	-3.081	-3.178	-3.059	-3.526	-3.096	-3.365	-2.895
445.0	30.65	175.4	241.6	437.6	523.2	520.7	571.8	564.5	539.2	569.5	613.3	592.7	586.0	560.3	554.3	527.7	501.7	484.8	466.1	455.3	439.8	441.0	433.6	430.4	424.8	416.7	406.4	398.4	374.6	355.9	331.8	293.0	266.1	258.7	198.6	143.2	108.1	83.42	65.00	51.31	39.70	37.31	54.76	277.8	 1302	 2111	77.76	0.730	-0.807	-1.824	-2.172	-2.302	-2.636	-3.060	-1.748	-3.165	-2.829	-2.356	-2.303	-3.294	-2.293	-3.298	-3.156	-3.223	-3.123	-2.746	-3.130	-2.947	-3.398	-2.849	-3.864	-3.409	-3.278	-3.389	-3.363	-2.859	-2.783
450.0	-83.47	305.0	350.6	379.4	486.1	493.3	545.5	520.7	533.7	555.6	571.8	554.4	557.5	539.8	515.2	489.4	463.5	457.4	429.5	418.7	403.8	402.7	398.7	404.9	399.8	389.6	382.4	380.6	371.8	350.5	329.9	291.6	264.0	242.1	221.5	171.5	123.7	96.92	78.53	61.45	45.49	34.73	29.98	72.96	341.3	 1386	 1522	362.7	19.83	-1.307	-2.123	-2.471	-2.312	-2.199	-2.138	-2.499	-3.138	-2.827	-2.825	-3.310	-3.196	-2.821	-2.683	-3.201	-3.194	-2.610	-2.938	-2.930	-3.217	-3.210	-3.284	-3.316	-3.247	-3.364	-3.356	-3.677	-3.758
455.0	-174.6	245.5	555.8	323.5	413.9	456.3	492.4	497.9	513.6	516.3	539.9	513.6	521.5	511.1	460.5	450.9	416.2	412.1	387.3	380.0	369.8	362.4	370.8	365.4	369.3	355.3	359.6	355.1	349.5	335.6	317.2	287.0	259.2	231.8	213.6	192.4	151.2	109.4	91.51	70.87	55.78	39.57	29.07	31.81	86.86	321.0	709.7	 1634	522.3	19.04	-1.381	-2.337	-2.545	-2.537	-2.432	-2.781	-2.615	-2.439	-3.246	-2.584	-2.753	-2.845	-2.625	-3.494	-3.151	-3.098	-3.155	-2.827	-3.162	-3.236	-3.234	-2.880	-3.591	-3.222	-3.517	-3.340	-3.535
460.0	-235.8	42.76	699.7	441.9	379.2	414.4	465.4	480.7	493.6	535.7	497.1	479.7	477.7	475.6	436.8	416.6	394.7	362.2	352.8	343.8	343.5	338.5	340.7	339.2	342.0	334.2	340.0	331.2	321.0	322.6	301.7	281.5	252.7	221.9	196.5	194.5	168.0	122.6	97.95	79.48	63.55	44.21	32.18	24.02	32.30	79.81	174.5	953.6	 1624	356.1	6.828	-1.597	-2.274	-2.627	-2.725	-2.833	-3.270	-3.021	-3.165	-2.644	-3.018	-3.430	-2.926	-3.303	-3.593	-2.980	-3.191	-3.578	-3.554	-3.774	-3.387	-3.679	-3.827	-3.494	-3.182	-3.813	-3.528
465.0	-292.8	-18.17	610.1	784.3	351.4	390.1	428.9	435.0	423.6	480.5	454.2	464.2	452.4	438.3	418.1	392.2	370.8	338.7	336.7	313.1	316.4	308.1	313.2	316.4	313.0	311.0	322.2	306.8	305.3	303.8	291.4	270.5	246.8	217.7	193.0	178.0	173.6	133.8	101.4	81.73	62.95	48.86	34.90	24.96	21.63	27.74	46.16	252.1	 1175	 1360	62.46	-0.400	-1.837	-2.270	-2.496	-2.822	-3.081	-3.188	-2.884	-2.735	-3.231	-3.142	-2.504	-2.702	-3.209	-3.548	-3.365	-2.793	-3.931	-3.438	-3.068	-3.787	-3.692	-3.863	-4.222	-3.812	-3.775
470.0	-226.3	-85.17	272.4	 1026	529.7	356.2	360.5	374.4	409.6	434.6	432.6	419.3	419.5	391.5	378.9	339.8	322.7	308.9	293.2	280.7	278.2	275.1	271.8	280.6	278.7	281.1	283.4	281.2	280.0	277.0	269.6	254.8	229.1	206.6	183.7	165.7	154.2	142.7	110.6	83.45	64.96	51.95	37.37	28.13	19.70	16.96	18.29	61.28	306.1	905.2	 1051	325.5	14.88	-2.419	-2.255	-2.761	-3.162	-2.680	-2.651	-2.852	-2.745	-3.100	-2.835	-3.417	-3.328	-3.457	-3.402	-2.575	-3.413	-3.027	-3.635	-3.455	-3.344	-3.706	-3.819	-3.744	-4.154
475.0	-295.4	-90.90	46.54	677.9	 1107	349.5	324.9	310.4	346.8	391.1	388.9	373.3	387.6	344.4	341.4	298.8	294.0	261.6	253.9	251.6	245.5	240.3	242.7	243.5	254.0	253.9	251.7	257.2	252.1	248.5	245.9	232.4	212.4	191.8	172.2	151.1	135.7	127.6	121.2	89.22	68.21	51.65	37.34	29.28	20.70	16.42	13.26	19.80	73.20	206.8	488.1	 1165	425.2	14.67	-1.931	-2.210	-3.000	-3.427	-3.533	-3.214	-2.843	-3.271	-3.200	-2.571	-2.805	-3.822	-2.862	-3.514	-3.893	-3.344	-4.236	-3.414	-3.640	-3.170	-3.836	-3.766	-3.911
480.0	-269.0	-131.9	53.69	328.3	 1242	478.4	317.1	294.5	310.6	340.9	353.5	352.1	353.8	324.4	298.2	275.9	260.4	245.0	228.9	223.5	222.5	222.6	224.1	224.7	229.6	227.2	232.6	227.8	229.8	233.9	227.6	215.4	201.7	183.1	165.0	146.4	129.5	117.6	116.6	97.43	68.16	52.24	39.20	28.75	21.03	16.14	12.88	11.42	21.06	49.21	118.4	664.4	 1125	78.83	2.623	-2.628	-3.143	-2.807	-3.640	-3.324	-3.356	-2.802	-3.213	-3.477	-3.659	-2.223	-3.084	-2.806	-3.122	-2.662	-3.570	-3.820	-3.542	-3.329	-3.868	-3.576	-3.267
485.0	-249.4	-128.5	74.83	121.3	931.0	908.1	289.3	259.5	310.7	289.9	333.5	318.1	321.9	295.0	272.0	260.7	236.2	223.6	208.3	210.3	205.9	203.1	202.7	203.9	210.3	209.1	211.6	213.3	211.4	216.2	211.2	202.9	185.6	173.8	160.1	138.3	124.3	111.4	106.9	99.58	74.53	52.94	39.98	29.44	23.64	16.24	14.45	10.07	10.06	14.12	28.71	174.1	794.2	973.7	64.98	-1.788	-2.982	-3.293	-3.707	-3.330	-3.286	-3.084	-3.681	-2.870	-3.014	-3.079	-2.618	-3.554	-3.697	-3.154	-3.571	-3.147	-3.610	-3.951	-3.623	-3.740	-4.074
490.0	-301.4	-105.8	16.33	72.96	400.7	 1178	516.9	247.4	273.3	287.7	298.7	305.3	288.9	263.8	253.1	229.8	213.7	201.4	188.0	182.6	184.0	179.0	178.5	183.8	183.0	184.4	187.7	193.1	191.4	194.7	193.0	184.7	171.8	159.4	144.0	131.9	118.1	101.7	93.38	87.23	78.94	59.28	41.57	31.46	24.45	17.66	14.71	10.93	8.405	7.233	9.279	40.14	203.9	616.9	763.6	307.0	15.01	-2.657	-3.118	-2.931	-3.096	-3.279	-3.101	-3.114	-3.359	-3.340	-3.273	-3.341	-3.321	-3.254	-3.377	-3.158	-3.577	-3.375	-3.727	-4.125	-4.458
495.0	-287.2	-114.4	-35.23	30.33	143.8	726.0	 1125	249.1	244.6	270.1	259.3	278.7	253.7	235.8	220.8	203.6	186.8	175.0	171.5	161.2	159.6	153.3	153.2	155.1	159.9	165.3	164.8	167.9	170.8	172.5	176.4	166.2	157.1	143.8	129.3	119.7	109.0	93.88	84.71	75.56	71.59	65.58	44.06	31.23	23.27	19.29	14.61	10.32	8.477	6.336	4.480	9.743	45.99	138.6	378.0	 1016	444.9	13.70	-2.724	-2.967	-2.891	-2.536	-3.590	-3.618	-3.687	-3.491	-3.752	-3.112	-3.206	-3.753	-3.435	-3.405	-3.548	-3.727	-4.393	-4.447	-4.223
500.0	-243.3	-192.1	-22.89	13.18	115.0	337.9	 1253	486.6	214.0	231.6	236.4	238.0	232.9	219.3	195.2	183.5	167.8	151.4	146.2	139.9	143.2	139.3	140.5	142.3	143.5	144.0	146.8	152.6	153.5	154.5	158.7	149.5	143.4	133.2	119.3	108.6	99.91	85.30	76.38	68.40	61.59	59.53	47.36	32.08	24.51	19.50	15.78	11.76	8.698	7.036	4.345	3.506	11.03	31.46	89.71	565.8	 1069	81.01	2.296	-2.278	-3.126	-2.475	-3.654	-4.008	-3.342	-3.637	-3.104	-3.493	-3.676	-3.916	-3.460	-3.885	-3.402	-3.493	-3.977	-3.517	-4.249
505.0	-240.7	-159.3	-40.08	34.52	42.88	149.3	890.7	934.1	209.6	216.9	192.5	213.8	204.1	187.2	174.8	162.9	151.9	139.7	138.2	132.8	125.4	120.0	127.9	129.9	132.9	132.1	136.0	136.7	142.3	141.1	137.7	138.2	126.9	118.1	108.8	97.23	88.44	79.77	73.68	61.60	54.63	50.09	47.54	34.11	25.22	19.53	14.60	11.13	7.971	7.266	4.414	2.846	3.526	6.952	19.53	143.9	730.8	930.9	67.50	-1.494	-3.140	-3.540	-3.928	-3.838	-4.294	-3.394	-4.198	-3.716	-3.294	-3.564	-3.761	-3.776	-4.088	-3.783	-4.057	-4.794	-3.778
510.0	-276.4	-140.4	-97.24	3.043	38.85	84.63	341.4	 1067	530.1	179.3	159.6	182.9	167.1	158.4	149.0	145.0	128.7	120.6	111.6	109.5	107.9	108.8	109.4	109.6	112.6	111.6	117.3	118.6	119.6	120.2	120.7	116.6	109.8	101.4	96.14	87.27	80.78	71.79	64.10	56.97	47.14	41.54	39.80	36.40	27.04	17.40	13.81	11.63	9.223	6.903	4.625	2.829	1.749	1.393	4.010	31.40	184.8	565.8	685.2	282.2	12.70	-3.132	-3.305	-3.903	-3.849	-3.670	-3.638	-4.070	-3.142	-3.790	-3.895	-3.753	-3.819	-3.709	-4.185	-4.391	-4.488
515.0	-362.3	-182.3	-140.3	-45.34	46.09	69.19	122.8	538.7	 1075	204.3	134.9	155.5	142.3	126.8	129.0	123.5	104.6	105.7	94.56	89.73	91.82	93.84	87.15	91.55	92.71	93.86	96.30	98.46	98.49	98.12	101.9	101.0	97.84	89.25	80.77	75.46	69.73	61.84	55.62	51.08	41.55	36.27	32.06	31.83	29.96	19.81	14.08	9.940	7.836	6.172	4.770	2.154	1.553	0.666	0.745	6.118	39.72	125.2	317.9	842.3	367.8	9.071	-2.666	-3.743	-3.719	-3.466	-4.049	-3.647	-3.828	-4.149	-4.697	-4.224	-3.636	-4.205	-4.178	-3.686	-4.705
520.0	-346.0	-203.6	-133.0	-32.71	48.41	36.72	71.79	190.9	 1148	490.9	115.2	120.8	133.1	100.2	123.2	103.2	94.74	91.42	82.27	76.70	75.33	79.70	75.81	79.42	82.47	84.38	86.62	88.66	86.61	91.71	89.83	87.98	85.49	79.28	71.80	68.05	61.43	55.48	49.01	44.17	37.93	32.53	25.38	25.25	28.24	22.68	16.04	10.19	8.651	5.548	4.520	2.709	1.959	0.245	0.119	0.471	7.724	26.42	74.70	457.6	823.3	77.13	0.061	-3.331	-3.842	-3.271	-4.160	-3.850	-3.991	-4.572	-4.051	-4.637	-4.405	-4.182	-4.639	-4.271	-3.624
525.0	-365.4	-202.7	-127.0	-51.65	10.13	42.58	41.09	81.53	721.6	951.9	116.1	103.3	100.4	93.38	103.0	88.26	81.95	74.41	71.03	70.74	70.82	67.65	65.64	72.04	70.73	73.12	72.95	74.98	78.16	78.39	81.31	80.24	75.52	68.87	64.55	60.47	53.80	47.57	45.53	39.31	33.20	29.77	24.13	22.14	23.63	22.18	17.03	10.18	7.763	6.178	4.514	2.252	2.278	0.034	-0.120	-0.365	0.577	4.902	15.04	113.2	531.7	655.1	62.44	-2.573	-3.833	-4.063	-3.955	-4.123	-4.049	-4.716	-4.043	-5.008	-3.613	-4.410	-4.062	-4.615	-4.176
530.0	-359.2	-267.6	-180.4	-86.04	-5.831	58.02	23.10	35.37	241.8	 1023	508.5	93.65	85.86	78.55	77.47	72.49	64.92	59.84	57.14	60.61	57.04	52.73	55.93	59.11	59.09	62.24	63.17	62.83	65.01	68.58	67.28	65.35	62.11	56.39	54.21	50.52	47.24	42.75	38.77	33.68	28.57	24.44	21.41	18.48	16.84	17.10	18.37	11.03	7.240	5.108	4.030	2.542	1.136	0.045	-0.450	-0.628	-0.899	0.137	1.367	23.61	131.3	394.4	527.2	205.2	7.583	-3.759	-4.120	-4.336	-3.809	-4.523	-3.802	-4.217	-4.080	-4.609	-3.694	-4.687	-4.233
535.0	-334.8	-190.9	-207.8	-110.5	-36.38	51.63	12.43	24.03	64.83	458.0	 1075	179.3	72.63	76.47	55.38	56.10	50.39	52.00	47.62	47.98	43.15	42.15	43.87	44.29	46.34	51.84	52.77	51.15	54.94	51.52	55.44	53.22	53.15	46.40	45.49	42.44	40.54	33.27	31.92	29.07	24.67	20.97	16.94	16.18	12.22	12.90	15.38	12.77	8.157	5.146	3.292	3.016	0.889	0.273	-0.662	-1.193	-1.854	-1.925	-1.103	3.194	27.05	86.04	224.3	570.8	249.6	4.007	-3.630	-3.720	-4.007	-4.569	-4.153	-4.513	-5.154	-4.016	-4.188	-4.758	-4.802
540.0	-354.3	-268.4	-191.1	-113.6	-87.32	-17.72	31.85	4.021	28.41	149.7	 1010	495.3	58.32	57.52	48.23	41.20	41.99	40.57	42.34	40.30	41.86	35.88	37.35	38.70	41.74	41.24	42.45	45.18	43.20	48.39	50.17	48.00	43.83	40.86	40.55	36.17	34.54	30.31	27.27	24.76	21.06	19.81	15.51	14.13	11.49	10.36	11.36	12.50	9.719	4.936	2.530	1.880	0.910	-0.610	0.023	-1.057	-1.282	-2.832	-1.734	-1.524	3.906	16.89	50.00	297.2	550.1	70.61	-2.519	-3.676	-3.863	-4.412	-4.228	-4.104	-4.028	-3.968	-4.159	-4.520	-4.888
545.0	-413.8	-329.0	-225.6	-124.2	-82.24	-16.34	47.61	-9.057	0.577	56.38	551.4	924.0	75.07	42.15	40.33	36.45	33.44	31.53	34.23	32.67	32.91	35.37	32.98	32.20	33.51	36.19	35.50	37.38	35.91	41.91	39.85	39.04	37.16	36.48	34.21	31.29	31.33	25.65	22.73	22.65	18.31	15.67	13.64	11.35	9.091	9.464	7.846	10.32	10.22	6.455	2.709	1.723	0.322	0.395	-0.889	-1.074	-0.697	-1.818	-2.031	-2.460	-1.106	1.430	8.383	73.10	362.3	440.9	50.38	-3.375	-3.885	-4.210	-4.622	-4.210	-3.948	-4.224	-4.044	-4.720	-5.024
550.0	-399.5	-321.6	-189.9	-159.1	-95.43	-43.07	14.02	13.31	-11.69	13.80	168.7	874.1	451.0	33.40	28.63	26.57	21.62	26.63	25.67	26.94	26.35	27.79	24.48	24.61	26.23	28.66	28.42	30.08	29.81	31.52	30.22	30.52	29.00	30.00	27.54	25.42	24.55	20.74	17.35	17.09	15.27	13.30	10.68	9.189	6.773	7.457	6.075	6.112	7.546	7.225	3.267	1.046	0.463	-1.197	-1.073	-1.045	-1.592	-1.559	-2.234	-2.889	-2.442	-1.916	-0.722	13.87	89.06	271.6	343.0	132.6	1.913	-4.151	-4.773	-4.364	-4.593	-4.631	-4.295	-4.534	-4.896
555.0	-334.0	-245.2	-189.4	-158.1	-102.7	-88.88	-9.624	16.26	9.030	-9.793	53.08	338.1	948.4	112.6	22.73	14.88	19.70	15.40	18.12	16.59	18.15	18.33	18.75	18.79	17.83	22.20	20.77	20.39	23.18	24.07	24.21	24.73	24.22	22.58	20.66	19.21	17.86	15.39	13.88	13.23	10.16	8.924	8.480	6.721	4.999	4.718	4.284	3.719	4.750	6.090	4.054	1.571	0.213	-1.348	-1.646	-1.913	-2.925	-1.926	-2.589	-2.946	-3.044	-3.033	-2.575	0.349	17.04	57.43	152.1	390.2	75.15	-1.307	-4.571	-4.242	-4.613	-4.586	-4.263	-4.773	-4.185
560.0	-275.7	-290.7	-200.8	-157.4	-102.2	-89.55	-39.18	-15.69	14.26	-16.37	16.89	88.93	851.2	417.2	11.90	7.992	12.60	9.803	12.63	11.73	10.65	12.12	11.54	14.83	16.76	15.24	16.20	18.56	18.26	17.36	18.80	16.99	19.78	17.35	16.86	15.97	13.91	12.14	11.16	10.41	7.590	6.912	6.906	5.697	4.421	3.147	3.585	2.841	2.642	3.744	4.517	1.844	-0.094	-1.982	-1.832	-1.632	-2.147	-2.575	-3.080	-2.782	-3.208	-3.023	-3.026	-2.176	1.357	9.899	33.91	211.0	320.5	53.50	-3.600	-4.106	-4.698	-4.494	-4.475	-4.875	-5.172
565.0	-320.6	-281.1	-174.8	-141.2	-121.3	-88.27	-59.17	-27.25	10.02	-19.04	-1.869	17.98	411.4	809.4	27.48	6.718	4.811	8.206	3.875	9.691	6.444	7.695	9.249	11.79	11.55	10.43	12.62	13.42	13.51	12.77	15.34	13.52	14.18	12.43	12.14	12.12	11.11	9.741	9.056	7.040	6.375	5.601	4.207	4.233	2.581	2.248	2.794	1.531	1.157	2.061	2.174	2.231	-0.558	-1.161	-1.873	-2.433	-2.804	-2.305	-3.718	-2.774	-3.127	-3.493	-3.295	-2.646	-2.302	-0.357	5.315	51.81	234.4	250.6	31.79	-4.079	-5.018	-4.338	-4.088	-4.692	-5.431
570.0	-357.9	-278.0	-212.8	-168.6	-134.0	-86.67	-62.70	-44.70	13.61	0.989	-1.387	12.68	118.5	714.4	376.5	0.356	0.301	0.241	1.816	3.123	4.086	3.981	4.972	5.457	7.865	6.720	7.592	7.177	9.159	8.267	10.64	8.958	10.03	9.544	8.480	8.527	7.646	6.563	5.435	4.347	4.233	3.601	1.997	1.786	1.568	0.800	1.139	0.202	0.701	0.492	0.724	0.888	-0.132	-1.601	-2.127	-2.507	-2.947	-2.933	-3.201	-2.844	-2.833	-3.273	-3.120	-3.665	-3.089	-3.359	-1.596	8.549	58.44	163.1	195.9	41.71	-1.685	-4.441	-4.448	-4.509	-5.171
575.0	-321.8	-307.4	-186.7	-179.6	-123.5	-89.22	-78.32	-60.33	-17.87	32.63	10.98	12.50	40.25	257.3	793.8	77.86	-3.610	-4.487	-3.323	-0.326	0.702	0.198	0.182	1.922	4.343	2.012	3.140	3.867	4.888	5.339	6.281	5.165	5.351	5.324	4.924	5.059	4.733	3.620	3.232	2.544	2.074	1.340	1.295	-0.294	0.457	0.285	-0.200	-0.445	-0.925	-0.230	-0.950	-0.037	-0.409	-1.341	-1.977	-2.500	-2.754	-2.606	-3.174	-3.145	-2.881	-3.350	-3.188	-3.632	-4.030	-3.485	-3.273	-1.045	9.805	33.55	92.20	208.2	58.09	-2.570	-4.268	-4.839	-4.917
580.0	-368.3	-237.7	-216.6	-153.2	-121.7	-101.4	-50.64	-33.12	-10.23	33.34	35.71	16.11	29.58	75.06	670.7	347.9	-7.608	-1.911	-1.737	-0.845	-4.334	-2.487	-1.286	2.371	2.305	0.925	1.674	2.942	2.848	3.524	4.240	2.878	2.224	4.738	3.436	3.800	2.812	2.165	2.116	1.168	1.086	-0.457	0.787	0.136	0.348	-1.578	-0.335	-1.798	-1.325	-0.093	-1.403	-1.068	-0.586	-1.844	-1.745	-3.389	-2.722	-3.543	-3.163	-3.618	-3.628	-3.418	-3.116	-3.876	-3.863	-3.214	-3.258	-3.026	-1.174	3.346	19.10	124.8	191.4	34.71	-3.770	-4.893	-4.983
585.0	-336.3	-275.0	-191.7	-174.4	-109.3	-114.7	-67.43	-15.54	-10.71	34.11	82.12	35.59	29.95	36.79	314.7	681.0	14.70	-5.695	-8.084	-3.963	-3.925	-2.580	-2.561	-0.601	-2.207	0.215	-0.721	0.030	0.919	1.627	1.362	0.974	2.254	2.633	2.183	1.405	2.521	0.908	1.906	1.206	0.336	-0.639	-0.651	-1.085	-0.369	-1.666	-1.339	-1.409	-0.908	-0.934	-0.991	-2.150	-1.572	-1.648	-1.253	-3.203	-2.939	-3.346	-3.467	-3.463	-3.109	-3.002	-3.506	-3.639	-4.461	-4.051	-3.723	-3.538	-3.468	-2.168	1.283	30.40	148.1	144.3	12.90	-4.119	-5.405
590.0	-337.9	-285.7	-178.5	-181.0	-101.0	-88.95	-57.08	-21.20	3.689	46.10	117.8	78.57	71.69	43.44	90.14	570.7	272.1	-5.375	-8.576	-4.853	-5.981	-6.009	-4.769	-2.088	-3.032	-1.188	-1.285	-2.437	0.249	-1.382	-0.093	-0.323	0.708	-0.189	0.440	0.237	0.814	0.544	0.233	-0.225	-0.762	-1.306	-1.538	-1.483	-1.163	-1.734	-1.781	-1.895	-1.468	-1.317	-1.813	-2.854	-2.058	-2.386	-1.454	-2.524	-2.953	-3.173	-3.368	-3.781	-3.257	-3.278	-3.597	-3.541	-3.466	-4.168	-3.949	-3.856	-4.022	-3.624	-3.135	3.803	36.27	99.43	100.4	29.40	-3.932
595.0	-325.0	-268.2	-232.0	-179.0	-101.2	-72.54	-45.13	8.430	33.13	75.50	139.0	149.8	110.2	64.80	42.15	176.5	560.9	50.16	-10.14	-11.19	-10.59	-8.991	-5.633	-5.332	-6.008	-4.928	-3.472	-3.040	-0.864	-2.736	-2.370	-3.026	-0.892	-0.720	-1.298	-0.382	-1.221	-1.025	-2.228	-1.952	-2.195	-2.214	-1.643	-2.023	-2.359	-2.004	-2.444	-2.449	-2.168	-2.022	-2.009	-2.143	-2.632	-3.387	-1.975	-1.914	-3.018	-2.905	-3.211	-3.399	-3.773	-3.496	-3.643	-3.495	-3.441	-3.509	-3.786	-3.958	-4.726	-4.213	-3.931	-2.342	5.342	19.11	52.35	122.9	33.86
600.0	-392.0	-267.5	-217.8	-196.9	-120.5	-47.25	-20.27	10.39	57.05	108.2	151.4	186.3	135.5	92.99	39.72	43.25	457.4	230.6	-7.434	-11.13	-8.399	-8.207	-5.851	-5.901	-4.763	-4.987	-4.165	-2.588	-2.183	-4.100	-1.834	-2.803	-2.138	-1.888	-1.032	-2.169	-1.195	-2.501	-1.729	-2.775	-2.615	-3.166	-1.728	-3.819	-3.687	-3.061	-2.259	-2.275	-2.335	-2.005	-2.288	-2.252	-2.465	-3.792	-2.547	-3.272	-2.410	-3.334	-3.580	-3.874	-3.269	-3.713	-3.349	-3.543	-4.289	-4.072	-3.625	-3.428	-4.051	-3.866	-3.784	-3.969	-2.138	0.584	9.251	77.27	93.87
605.0	-384.1	-279.3	-225.5	-152.7	-122.8	-46.69	-3.468	35.21	89.67	136.5	177.8	212.5	160.5	94.00	48.69	16.05	212.0	431.2	2.518	-9.218	-9.862	-8.416	-6.859	-7.018	-5.164	-5.713	-3.938	-4.419	-4.120	-3.879	-2.701	-4.181	-3.493	-2.730	-3.090	-2.442	-2.240	-3.517	-2.522	-3.815	-1.754	-2.184	-3.325	-3.801	-3.412	-3.111	-2.678	-2.765	-2.713	-1.466	-1.738	-3.248	-2.822	-3.262	-3.435	-2.865	-2.743	-2.801	-3.371	-3.135	-3.406	-3.136	-3.677	-3.220	-4.031	-4.229	-3.549	-3.434	-3.735	-3.429	-3.870	-3.896	-3.579	-3.841	-0.869	17.92	82.27
610.0	-362.8	-263.4	-187.8	-146.3	-119.9	-53.37	0.617	67.18	101.7	144.4	175.9	199.7	176.3	95.95	44.07	9.844	46.82	367.4	182.2	-9.888	-10.32	-9.385	-9.015	-8.126	-7.570	-5.947	-5.390	-5.945	-4.371	-4.535	-4.433	-4.794	-3.265	-2.908	-3.709	-2.942	-3.031	-3.726	-2.774	-3.313	-3.407	-3.294	-3.181	-3.998	-3.072	-3.291	-3.199	-2.826	-3.165	-2.192	-2.341	-3.592	-3.188	-3.153	-2.850	-2.710	-3.171	-2.568	-3.406	-3.267	-3.739	-3.197	-3.831	-3.463	-4.010	-3.863	-3.717	-3.599	-3.384	-3.512	-3.697	-3.772	-4.341	-4.069	-3.575	-0.086	18.12
615.0	-363.5	-298.7	-190.3	-181.2	-87.07	-63.66	1.607	44.68	106.3	134.2	161.1	185.9	181.9	99.71	48.13	14.54	4.584	111.3	395.8	26.20	-12.97	-9.311	-12.04	-8.966	-6.959	-5.366	-6.807	-5.906	-7.202	-5.507	-5.099	-6.021	-4.123	-4.103	-4.557	-2.737	-3.589	-3.265	-3.412	-3.377	-3.741	-3.591	-3.041	-4.467	-3.934	-3.800	-3.272	-3.512	-3.288	-2.808	-2.842	-3.127	-2.946	-3.457	-2.899	-2.605	-3.169	-3.317	-3.076	-3.882	-3.289	-3.364	-3.903	-4.090	-4.031	-3.893	-4.041	-3.781	-4.256	-3.881	-4.468	-3.981	-3.884	-3.967	-3.755	-3.964	0.310
620.0	-353.2	-249.5	-174.6	-195.7	-75.56	-54.28	-9.108	51.06	95.20	148.2	152.7	163.1	167.7	107.6	46.89	14.75	-7.788	18.33	346.0	166.3	-11.07	-12.40	-10.88	-8.784	-7.285	-7.246	-8.097	-6.423	-6.650	-6.208	-4.403	-5.978	-4.521	-6.357	-4.238	-3.262	-4.348	-4.404	-4.009	-3.686	-4.646	-4.069	-2.933	-4.307	-3.949	-4.209	-3.173	-3.467	-3.118	-3.014	-2.846	-3.454	-3.000	-3.400	-3.054	-3.359	-3.365	-2.860	-2.716	-3.377	-3.019	-3.440	-3.999	-3.508	-4.366	-4.183	-4.021	-3.544	-3.341	-4.400	-4.320	-4.056	-4.306	-4.328	-4.145	-4.368	-4.036
625.0	-331.7	-291.9	-190.9	-177.7	-109.2	-39.99	-9.309	61.00	84.87	142.2	157.5	166.9	137.7	123.1	43.24	10.06	-8.128	-6.576	163.4	331.5	-1.100	-9.840	-10.76	-8.737	-7.922	-6.270	-7.772	-6.923	-6.814	-7.297	-6.309	-5.716	-4.355	-5.197	-4.630	-4.135	-3.976	-4.976	-3.803	-4.299	-3.574	-5.117	-4.535	-4.231	-4.478	-3.824	-3.488	-4.031	-3.014	-2.530	-2.636	-4.100	-3.301	-3.837	-2.858	-3.376	-3.281	-3.003	-2.889	-3.714	-3.099	-3.100	-3.593	-3.441	-3.176	-3.777	-3.790	-4.058	-3.843	-4.182	-4.730	-4.270	-4.364	-4.086	-4.707	-5.382	-5.479
630.0	-329.4	-267.6	-189.9	-172.2	-124.7	-73.33	3.310	49.69	90.55	127.5	150.9	158.8	126.8	111.7	48.52	5.313	-9.655	-10.58	32.08	299.3	140.1	-9.905	-10.96	-8.626	-8.352	-8.137	-8.027	-7.616	-6.855	-7.387	-6.417	-6.375	-5.161	-5.101	-5.045	-4.160	-4.115	-5.555	-4.504	-3.751	-4.524	-4.218	-4.677	-4.339	-4.463	-4.238	-3.356	-3.986	-3.285	-2.722	-2.731	-3.831	-3.290	-3.939	-3.351	-3.563	-3.352	-3.671	-3.892	-3.516	-3.646	-3.228	-3.674	-3.076	-3.879	-4.118	-3.904	-3.796	-3.702	-4.322	-4.259	-4.630	-4.180	-4.539	-4.195	-4.966	-4.860
635.0	-365.3	-239.1	-198.8	-143.5	-115.1	-56.41	-25.16	31.26	74.41	138.5	134.5	126.2	123.5	85.05	55.46	8.376	-10.03	-12.43	-2.968	95.10	321.3	16.18	-8.349	-9.187	-9.012	-8.183	-7.516	-7.836	-7.330	-9.340	-6.766	-5.917	-5.531	-6.553	-5.422	-5.390	-4.854	-4.907	-5.050	-4.012	-4.227	-3.931	-4.177	-4.225	-4.298	-4.753	-3.791	-3.986	-3.053	-3.089	-2.773	-3.517	-3.788	-3.489	-3.603	-3.606	-3.562	-3.392	-3.423	-4.112	-3.382	-2.812	-3.542	-3.825	-4.012	-3.855	-3.889	-4.256	-4.069	-4.014	-3.654	-5.222	-4.244	-3.946	-4.359	-5.100	-4.387
640.0	-378.2	-246.1	-192.8	-153.8	-95.15	-70.33	7.076	25.77	78.60	91.76	118.6	110.5	105.5	59.47	44.40	11.61	-9.426	-14.13	-11.15	14.49	279.1	117.8	-11.79	-9.788	-8.176	-9.318	-7.782	-8.723	-6.624	-8.573	-6.983	-5.940	-5.186	-6.213	-5.641	-5.590	-5.539	-4.458	-4.734	-4.339	-5.284	-4.591	-4.429	-4.314	-4.482	-4.873	-4.151	-3.433	-3.166	-2.871	-2.807	-3.662	-3.098	-3.825	-3.529	-4.132	-3.922	-3.332	-3.795	-3.850	-3.931	-3.271	-3.478	-4.079	-3.749	-3.615	-4.489	-4.679	-4.229	-4.090	-3.841	-4.348	-4.410	-4.602	-4.440	-4.716	-4.411
645.0	-330.4	-251.5	-206.4	-163.6	-101.3	-90.82	-23.76	16.01	54.40	75.30	87.53	94.35	90.76	48.71	40.12	14.60	-9.766	-11.46	-12.33	-6.831	134.4	255.8	-5.658	-9.195	-8.269	-10.32	-7.485	-8.348	-7.431	-7.495	-7.034	-6.507	-6.035	-5.774	-5.703	-5.220	-4.826	-5.327	-4.291	-5.274	-5.134	-4.388	-4.900	-4.145	-4.437	-4.633	-3.757	-3.564	-3.992	-3.057	-3.217	-3.819	-3.576	-3.730	-3.766	-3.819	-3.156	-3.550	-3.315	-3.900	-3.744	-3.466	-3.524	-3.928	-4.123	-4.594	-4.393	-4.271	-3.658	-4.286	-3.269	-4.208	-4.833	-5.149	-4.819	-4.500	-5.191
650.0	-330.9	-271.1	-173.1	-192.4	-130.1	-98.63	-25.35	-4.033	32.69	64.47	75.37	85.20	76.55	49.76	27.28	12.65	-7.880	-11.11	-9.361	-10.15	31.95	292.8	42.84	-10.52	-7.788	-10.14	-8.498	-8.257	-7.512	-8.881	-7.442	-6.589	-5.819	-6.445	-5.999	-4.860	-4.628	-5.323	-5.111	-5.565	-5.116	-5.059	-4.566	-4.856	-4.395	-3.596	-3.593	-3.976	-3.885	-2.872	-3.000	-3.205	-3.521	-4.164	-3.280	-3.643	-3.956	-4.389	-4.192	-3.008	-4.394	-4.029	-3.762	-3.521	-3.484	-4.427	-4.536	-4.097	-4.311	-4.357	-3.967	-4.104	-4.376	-4.096	-4.308	-5.073	-4.944
